SpectraSuite Data File
++++++++++++++++++++++++++++++++++++
Date: Wed Sep 18 04:21:14 EST 2019
User: sgrac
Dark Spectrum Present: Yes
Reference Spectrum Present: Yes
Number of Sampled Component Spectra: 1
Spectrometers: USB4E01596
Integration Time (usec): 100000 (USB4E01596)
Spectra Averaged: 3 (USB4E01596)
Boxcar Smoothing: 0 (USB4E01596)
Correct for Electrical Dark: No (USB4E01596)
Strobe/Lamp Enabled: Yes (USB4E01596)
Correct for Detector Non-linearity: No (USB4E01596)
Correct for Stray Light: No (USB4E01596)
Number of Pixels in Processed Spectrum: 3648
>>>>>Begin Processed Spectral Data<<<<<
178.44	-111.290
178.66	-111.290
178.87	-111.290
179.09	-278.000
179.30	259.783
179.52	784.211
179.74	-538.889
179.95	-1746.667
180.17	606.977
180.38	-886.667
180.60	421.429
180.82	1937.500
181.03	525.581
181.25	-2014.286
181.46	-472.500
181.68	-474.419
181.89	734.694
182.11	607.500
182.33	727.451
182.54	443.860
182.76	1086.957
182.97	1885.714
183.19	365.217
183.40	269.318
183.62	409.615
183.84	362.903
184.05	684.848
184.27	450.820
184.48	3187.500
184.70	788.889
184.91	691.304
185.13	-665.625
185.34	-400.000
185.56	-721.212
185.78	1300.000
185.99	404.918
186.21	704.878
186.42	-2210.000
186.64	375.758
186.85	2043.750
187.07	545.238
187.28	516.667
187.50	-1100.000
187.72	460.000
187.93	379.518
188.15	501.471
188.36	-1370.588
188.58	342.857
188.79	-15500.000
189.01	194.558
189.22	381.818
189.44	1054.167
189.65	355.056
189.87	401.316
190.09	352.128
190.30	1303.333
190.52	1662.500
190.73	326.506
190.95	1218.182
191.16	316.418
191.38	-24700.000
191.59	678.261
191.81	464.286
192.02	-743.590
192.24	443.548
192.45	326.667
192.67	359.091
192.88	451.563
193.10	643.182
193.31	483.929
193.53	448.387
193.74	812.121
193.96	533.898
194.18	-1230.435
194.39	586.275
194.61	1010.345
194.82	984.615
195.04	473.333
195.25	440.984
195.47	-6600.000
195.68	374.648
195.90	312.088
196.11	589.583
196.33	1652.941
196.54	700.000
196.76	-824.000
196.97	323.000
197.19	1535.000
197.40	318.045
197.62	-572.727
197.83	490.385
198.05	241.611
198.26	-824.000
198.48	619.444
198.69	271.560
198.91	405.797
199.12	-1783.333
199.34	1012.000
199.55	22800.000
199.77	369.737
199.98	3583.333
200.20	770.588
200.41	483.099
200.63	483.333
200.84	1247.619
201.06	729.032
201.27	398.765
201.49	490.625
201.70	590.164
201.91	661.364
202.13	1590.000
202.34	-611.429
202.56	541.667
202.77	-253.488
202.99	425.610
203.20	697.872
203.42	385.714
203.63	255.963
203.85	-806.897
204.06	781.818
204.28	2053.333
204.49	551.163
204.71	226.050
204.92	1088.462
205.14	1347.368
205.35	6450.000
205.56	407.042
205.78	351.852
205.99	235.878
206.21	269.697
206.42	643.478
206.64	823.529
206.85	336.667
207.07	651.429
207.28	302.273
207.50	1186.957
207.71	639.535
207.93	579.167
208.14	602.326
208.35	394.915
208.57	492.000
208.78	321.277
209.00	333.333
209.21	273.239
209.43	459.722
209.64	961.538
209.86	1900.000
210.07	441.772
210.28	354.217
210.50	372.464
210.71	407.576
210.93	443.636
211.14	685.000
211.36	1271.429
211.57	234.167
211.78	946.154
212.00	713.514
212.21	2811.111
212.43	2169.231
212.64	875.000
212.86	282.727
213.07	548.077
213.29	362.245
213.50	390.000
213.71	351.250
213.93	273.034
214.14	856.250
214.36	663.415
214.57	440.476
214.78	6775.000
215.00	324.390
215.21	571.111
215.43	-5220.000
215.64	361.429
215.86	426.471
216.07	310.959
216.28	600.000
216.50	538.000
216.71	1446.667
216.93	-24300.000
217.14	1452.632
217.35	-301.695
217.57	270.455
217.78	689.655
218.00	251.429
218.21	311.765
218.42	-5700.000
218.64	839.286
218.85	364.706
219.07	404.651
219.28	447.917
219.49	-11750.000
219.71	379.104
219.92	421.053
220.14	-20300.000
220.35	345.205
220.56	289.130
220.78	254.878
220.99	-455.556
221.21	402.410
221.42	193.421
221.63	1630.769
221.85	-790.000
222.06	259.596
222.28	-600.000
222.49	398.246
222.70	323.276
222.92	539.474
223.13	175.342
223.34	2133.333
223.56	167.521
223.77	301.235
223.99	257.576
224.20	308.333
224.41	269.091
224.63	181.250
224.84	207.258
225.05	281.967
225.27	496.364
225.48	387.805
225.69	371.875
225.91	293.846
226.12	385.333
226.34	304.902
226.55	282.075
226.76	192.248
226.98	337.179
227.19	183.571
227.40	209.155
227.62	134.359
227.83	100.952
228.04	132.432
228.26	189.189
228.47	112.019
228.69	58.033
228.90	52.316
229.11	54.494
229.33	63.820
229.54	58.301
229.75	35.189
229.97	45.854
230.18	44.595
230.39	45.225
230.61	24.490
230.82	46.714
231.03	28.331
231.25	47.529
231.46	44.921
231.67	39.906
231.89	45.826
232.10	48.354
232.31	56.038
232.53	75.333
232.74	56.024
232.95	64.356
233.17	65.784
233.38	61.229
233.59	69.536
233.81	73.987
234.02	71.758
234.23	57.552
234.45	53.631
234.66	44.307
234.87	66.966
235.09	65.550
235.30	55.025
235.51	75.188
235.73	57.720
235.94	62.815
236.15	73.134
236.36	66.292
236.58	53.977
236.79	56.530
237.00	49.162
237.22	46.961
237.43	48.847
237.64	48.387
237.86	47.561
238.07	57.238
238.28	62.446
238.50	55.828
238.71	59.423
238.92	47.380
239.13	64.530
239.35	49.722
239.56	62.633
239.77	81.641
239.99	48.312
240.20	78.958
240.41	40.937
240.63	54.963
240.84	54.950
241.05	33.926
241.26	42.879
241.48	47.845
241.69	43.011
241.90	29.332
242.12	33.367
242.33	30.451
242.54	24.000
242.75	16.362
242.97	30.487
243.18	21.706
243.39	20.216
243.61	16.093
243.82	26.246
244.03	25.014
244.24	18.381
244.46	20.884
244.67	21.177
244.88	20.997
245.09	25.067
245.31	18.632
245.52	15.944
245.73	24.324
245.95	47.377
246.16	29.334
246.37	27.445
246.58	25.849
246.80	30.133
247.01	23.688
247.22	21.685
247.43	17.650
247.65	22.757
247.86	17.155
248.07	14.460
248.28	15.632
248.50	15.378
248.71	15.224
248.92	16.919
249.13	14.120
249.35	16.609
249.56	16.199
249.77	12.965
249.98	15.438
250.20	19.506
250.41	23.275
250.62	21.422
250.83	23.606
251.05	27.185
251.26	20.374
251.47	24.411
251.68	24.511
251.90	19.779
252.11	28.217
252.32	25.767
252.53	24.558
252.75	15.936
252.96	21.479
253.17	21.810
253.38	18.424
253.59	18.287
253.81	16.532
254.02	22.216
254.23	18.307
254.44	23.383
254.66	24.296
254.87	21.832
255.08	23.670
255.29	28.933
255.50	21.053
255.72	24.052
255.93	27.368
256.14	25.926
256.35	28.366
256.57	27.021
256.78	31.429
256.99	25.000
257.20	30.048
257.41	24.681
257.63	26.199
257.84	24.656
258.05	20.183
258.26	19.731
258.47	25.414
258.69	24.487
258.90	14.266
259.11	17.520
259.32	17.763
259.53	15.770
259.75	11.898
259.96	15.201
260.17	13.336
260.38	12.808
260.59	11.718
260.81	12.764
261.02	13.088
261.23	11.701
261.44	13.381
261.65	12.561
261.87	10.930
262.08	14.782
262.29	12.983
262.50	11.798
262.71	11.746
262.92	14.863
263.14	13.121
263.35	12.321
263.56	15.277
263.77	16.925
263.98	15.768
264.20	18.545
264.41	19.462
264.62	15.179
264.83	8.347
265.04	23.345
265.25	19.476
265.47	24.242
265.68	22.042
265.89	20.394
266.10	17.829
266.31	20.759
266.52	17.485
266.74	16.283
266.95	13.806
267.16	17.440
267.37	13.261
267.58	12.949
267.79	16.088
268.01	13.580
268.22	12.103
268.43	14.929
268.64	15.385
268.85	15.085
269.06	12.378
269.27	15.407
269.49	16.189
269.70	17.580
269.91	16.189
270.12	15.688
270.33	16.603
270.54	13.818
270.75	10.900
270.97	17.655
271.18	13.851
271.39	14.662
271.60	14.297
271.81	13.585
272.02	15.136
272.23	14.519
272.45	12.172
272.66	11.636
272.87	12.570
273.08	13.391
273.29	13.738
273.50	10.929
273.71	9.310
273.92	11.832
274.14	10.552
274.35	14.617
274.56	12.877
274.77	12.277
274.98	13.094
275.19	13.415
275.40	15.177
275.61	11.226
275.83	13.532
276.04	12.856
276.25	16.293
276.46	14.676
276.67	17.391
276.88	15.953
277.09	15.471
277.30	17.894
277.51	12.460
277.73	12.697
277.94	15.802
278.15	13.457
278.36	16.861
278.57	12.181
278.78	14.159
278.99	12.347
279.20	16.701
279.41	16.484
279.62	12.469
279.84	14.634
280.05	11.882
280.26	12.238
280.47	16.276
280.68	10.742
280.89	13.525
281.10	14.604
281.31	14.062
281.52	12.676
281.73	11.691
281.94	10.570
282.16	13.435
282.37	13.473
282.58	10.728
282.79	11.592
283.00	15.856
283.21	11.776
283.42	9.969
283.63	13.872
283.84	10.846
284.05	11.131
284.26	12.250
284.47	11.434
284.68	11.132
284.89	10.246
285.11	12.526
285.32	12.765
285.53	14.929
285.74	13.987
285.95	11.558
286.16	12.465
286.37	7.629
286.58	9.797
286.79	6.782
287.00	8.423
287.21	11.362
287.42	10.318
287.63	12.303
287.84	9.146
288.05	10.619
288.26	10.136
288.48	12.472
288.69	10.568
288.90	13.396
289.11	11.823
289.32	8.961
289.53	11.856
289.74	9.783
289.95	11.477
290.16	10.709
290.37	11.779
290.58	9.715
290.79	8.134
291.00	9.943
291.21	11.057
291.42	10.285
291.63	8.554
291.84	10.621
292.05	8.453
292.26	9.708
292.47	10.037
292.68	8.958
292.89	11.846
293.10	10.933
293.31	11.275
293.52	7.631
293.73	8.754
293.94	11.348
294.15	8.056
294.36	10.786
294.57	11.564
294.79	10.946
295.00	8.425
295.21	12.194
295.42	11.024
295.63	10.371
295.84	8.268
296.05	9.692
296.26	10.327
296.47	10.106
296.68	8.656
296.89	9.343
297.10	9.866
297.31	9.422
297.52	7.228
297.73	8.832
297.94	7.911
298.15	7.935
298.36	7.136
298.57	7.442
298.78	9.296
298.99	8.121
299.20	9.063
299.41	9.248
299.62	8.814
299.83	7.905
300.04	8.370
300.25	11.221
300.46	9.818
300.67	11.369
300.88	9.026
301.09	6.105
301.30	10.372
301.50	9.162
301.71	11.175
301.92	10.240
302.13	8.857
302.34	8.712
302.55	8.327
302.76	8.151
302.97	7.923
303.18	8.707
303.39	9.060
303.60	10.144
303.81	10.917
304.02	8.306
304.23	10.508
304.44	9.086
304.65	7.963
304.86	9.790
305.07	7.790
305.28	10.796
305.49	9.849
305.70	10.081
305.91	9.508
306.12	8.127
306.33	8.604
306.54	9.853
306.75	9.863
306.96	12.912
307.17	9.528
307.38	8.815
307.58	8.693
307.79	10.716
308.00	11.348
308.21	8.810
308.42	8.350
308.63	9.891
308.84	9.341
309.05	9.408
309.26	10.652
309.47	9.851
309.68	9.375
309.89	9.644
310.10	9.700
310.31	8.971
310.52	8.253
310.73	11.326
310.94	7.725
311.14	8.867
311.35	8.725
311.56	9.311
311.77	6.191
311.98	7.871
312.19	8.375
312.40	6.511
312.61	7.287
312.82	8.830
313.03	8.778
313.24	8.420
313.45	8.601
313.66	8.449
313.86	9.698
314.07	8.935
314.28	8.306
314.49	5.716
314.70	8.301
314.91	9.709
315.12	9.633
315.33	10.649
315.54	9.674
315.75	8.407
315.96	7.167
316.16	7.341
316.37	12.053
316.58	9.053
316.79	9.245
317.00	10.681
317.21	10.183
317.42	12.890
317.63	9.704
317.84	10.128
318.05	8.756
318.25	9.250
318.46	8.265
318.67	9.456
318.88	12.862
319.09	9.309
319.30	9.575
319.51	8.105
319.72	8.265
319.93	8.197
320.13	11.108
320.34	9.286
320.55	6.915
320.76	10.500
320.97	10.449
321.18	10.860
321.39	8.056
321.60	10.312
321.80	12.619
322.01	10.021
322.22	11.946
322.43	7.961
322.64	10.520
322.85	8.309
323.06	9.439
323.27	12.683
323.47	12.651
323.68	9.822
323.89	10.153
324.10	9.808
324.31	10.405
324.52	10.645
324.73	8.010
324.93	7.141
325.14	9.066
325.35	10.722
325.56	10.347
325.77	11.845
325.98	7.623
326.19	10.771
326.39	7.724
326.60	9.923
326.81	7.237
327.02	7.034
327.23	8.527
327.44	12.545
327.64	8.570
327.85	8.641
328.06	9.255
328.27	11.919
328.48	10.356
328.69	6.222
328.90	9.491
329.10	8.177
329.31	10.000
329.52	8.796
329.73	9.460
329.94	8.971
330.15	11.573
330.35	11.285
330.56	10.412
330.77	10.325
330.98	11.202
331.19	9.380
331.39	9.143
331.60	8.811
331.81	9.380
332.02	10.454
332.23	9.415
332.44	10.998
332.64	9.504
332.85	10.320
333.06	11.130
333.27	8.190
333.48	10.361
333.68	9.300
333.89	10.958
334.10	9.510
334.31	11.312
334.52	8.693
334.72	9.169
334.93	8.863
335.14	6.846
335.35	8.667
335.56	9.724
335.76	7.061
335.97	10.386
336.18	8.938
336.39	12.655
336.60	9.354
336.80	10.045
337.01	8.349
337.22	7.521
337.43	10.685
337.64	10.715
337.84	10.086
338.05	9.962
338.26	10.773
338.47	10.634
338.68	7.372
338.88	11.861
339.09	11.037
339.30	11.251
339.51	7.721
339.71	9.444
339.92	8.221
340.13	11.078
340.34	9.430
340.55	8.540
340.75	9.049
340.96	9.548
341.17	9.206
341.38	8.346
341.58	11.326
341.79	9.715
342.00	8.280
342.21	11.240
342.41	7.773
342.62	9.830
342.83	9.320
343.04	8.147
343.24	9.026
343.45	11.686
343.66	8.293
343.87	9.142
344.07	8.781
344.28	11.642
344.49	10.395
344.70	11.811
344.90	8.005
345.11	7.901
345.32	9.959
345.53	8.742
345.73	10.202
345.94	11.479
346.15	12.837
346.36	10.037
346.56	9.951
346.77	13.436
346.98	10.841
347.19	11.257
347.39	10.855
347.60	10.506
347.81	11.291
348.02	12.189
348.22	10.070
348.43	10.058
348.64	8.443
348.84	10.444
349.05	11.209
349.26	13.019
349.47	10.815
349.67	10.064
349.88	13.162
350.09	9.389
350.30	14.330
350.50	12.312
350.71	13.763
350.92	11.922
351.12	12.119
351.33	11.699
351.54	12.649
351.74	12.964
351.95	11.196
352.16	13.907
352.37	12.837
352.57	12.510
352.78	11.651
352.99	14.370
353.19	13.835
353.40	12.968
353.61	14.605
353.82	14.865
354.02	15.956
354.23	12.269
354.44	14.915
354.64	13.301
354.85	13.953
355.06	12.993
355.26	12.959
355.47	14.146
355.68	17.733
355.88	14.355
356.09	13.252
356.30	13.236
356.51	14.089
356.71	14.018
356.92	12.861
357.13	13.908
357.33	16.619
357.54	13.537
357.75	12.496
357.95	15.195
358.16	13.420
358.37	18.039
358.57	12.307
358.78	16.750
358.99	15.235
359.19	12.730
359.40	15.557
359.61	15.832
359.81	16.381
360.02	18.401
360.23	14.636
360.43	14.131
360.64	15.235
360.85	15.403
361.05	14.202
361.26	16.849
361.47	14.539
361.67	17.076
361.88	11.780
362.09	16.275
362.29	13.290
362.50	13.366
362.70	13.144
362.91	16.635
363.12	14.468
363.32	15.270
363.53	15.571
363.74	16.982
363.94	13.022
364.15	17.548
364.36	15.630
364.56	14.565
364.77	15.721
364.98	18.066
365.18	14.602
365.39	16.172
365.59	13.449
365.80	14.939
366.01	13.657
366.21	15.071
366.42	14.496
366.63	15.909
366.83	15.154
367.04	12.967
367.24	16.189
367.45	14.996
367.66	13.400
367.86	13.884
368.07	12.651
368.28	14.479
368.48	13.528
368.69	12.892
368.89	14.079
369.10	15.104
369.31	13.131
369.51	15.675
369.72	15.808
369.92	17.688
370.13	11.810
370.34	15.677
370.54	9.908
370.75	14.290
370.95	12.432
371.16	14.271
371.37	12.839
371.57	13.829
371.78	13.275
371.98	14.530
372.19	14.709
372.40	14.105
372.60	14.256
372.81	14.696
373.01	12.302
373.22	13.961
373.43	13.927
373.63	14.139
373.84	14.330
374.04	14.363
374.25	13.591
374.46	14.199
374.66	14.234
374.87	14.239
375.07	11.159
375.28	13.493
375.48	12.742
375.69	14.657
375.90	10.691
376.10	10.969
376.31	12.620
376.51	11.134
376.72	12.674
376.92	10.595
377.13	13.112
377.34	14.055
377.54	12.452
377.75	13.865
377.95	12.874
378.16	13.545
378.36	12.918
378.57	15.004
378.77	12.314
378.98	11.841
379.19	12.456
379.39	12.974
379.60	12.363
379.80	13.398
380.01	12.619
380.21	12.782
380.42	13.542
380.62	12.528
380.83	13.498
381.04	12.788
381.24	13.330
381.45	12.753
381.65	11.710
381.86	13.241
382.06	12.608
382.27	11.503
382.47	11.995
382.68	13.186
382.88	10.801
383.09	11.080
383.29	12.594
383.50	12.676
383.71	11.481
383.91	11.203
384.12	11.790
384.32	11.879
384.53	11.363
384.73	11.244
384.94	10.088
385.14	11.207
385.35	10.427
385.55	11.308
385.76	10.221
385.96	11.477
386.17	12.116
386.37	12.037
386.58	10.847
386.78	13.344
386.99	10.682
387.19	12.730
387.40	9.798
387.60	12.496
387.81	10.946
388.01	10.805
388.22	12.863
388.42	13.048
388.63	13.248
388.83	14.148
389.04	9.438
389.24	11.619
389.45	11.065
389.65	10.500
389.86	10.523
390.06	10.088
390.27	11.045
390.47	11.311
390.68	10.986
390.88	12.787
391.09	12.254
391.29	12.371
391.50	10.763
391.70	10.835
391.91	10.898
392.11	11.490
392.32	11.854
392.52	11.633
392.73	10.772
392.93	11.849
393.14	10.664
393.34	11.905
393.55	12.540
393.75	10.927
393.95	10.644
394.16	10.917
394.36	12.742
394.57	11.863
394.77	11.415
394.98	9.947
395.18	11.338
395.39	10.488
395.59	10.219
395.80	11.624
396.00	10.553
396.21	12.302
396.41	10.025
396.61	11.717
396.82	11.411
397.02	12.743
397.23	12.386
397.43	11.139
397.64	9.095
397.84	12.875
398.05	9.082
398.25	12.419
398.45	9.775
398.66	10.967
398.86	10.084
399.07	12.253
399.27	10.135
399.48	10.819
399.68	9.665
399.89	9.966
400.09	11.017
400.29	10.421
400.50	10.378
400.70	11.299
400.91	10.695
401.11	10.380
401.32	12.057
401.52	9.314
401.72	10.391
401.93	12.627
402.13	10.714
402.34	10.625
402.54	9.391
402.75	12.877
402.95	8.502
403.15	11.753
403.36	10.232
403.56	11.194
403.77	9.042
403.97	10.346
404.17	8.594
404.38	10.669
404.58	9.106
404.79	10.873
404.99	11.269
405.19	10.005
405.40	10.202
405.60	10.445
405.81	9.851
406.01	10.193
406.21	8.842
406.42	10.150
406.62	10.608
406.83	11.376
407.03	10.993
407.23	8.969
407.44	9.478
407.64	10.702
407.85	9.400
408.05	9.898
408.25	10.091
408.46	10.745
408.66	10.386
408.87	10.069
409.07	9.745
409.27	8.561
409.48	8.988
409.68	10.572
409.88	7.796
410.09	10.277
410.29	10.463
410.50	12.018
410.70	8.305
410.90	9.325
411.11	9.120
411.31	9.823
411.51	11.012
411.72	11.274
411.92	9.319
412.12	8.786
412.33	8.320
412.53	9.314
412.74	7.578
412.94	9.752
413.14	9.646
413.35	9.518
413.55	9.402
413.75	9.753
413.96	8.771
414.16	9.122
414.36	9.616
414.57	9.458
414.77	8.789
414.97	9.602
415.18	8.114
415.38	9.034
415.58	10.039
415.79	8.706
415.99	8.260
416.19	10.390
416.40	9.608
416.60	9.451
416.80	8.691
417.01	9.706
417.21	8.095
417.41	10.602
417.62	9.761
417.82	9.251
418.02	8.016
418.23	9.536
418.43	8.885
418.63	10.490
418.84	9.165
419.04	9.165
419.24	9.926
419.45	10.110
419.65	10.294
419.85	9.926
420.06	9.971
420.26	10.231
420.46	9.848
420.67	9.907
420.87	9.995
421.07	10.195
421.28	9.741
421.48	10.131
421.68	9.768
421.88	10.688
422.09	10.771
422.29	9.716
422.49	9.849
422.70	9.992
422.90	10.106
423.10	9.879
423.31	10.227
423.51	10.372
423.71	9.668
423.91	10.406
424.12	9.998
424.32	10.098
424.52	9.921
424.73	9.778
424.93	9.959
425.13	10.104
425.33	9.564
425.54	9.888
425.74	10.072
425.94	10.308
426.15	9.862
426.35	9.681
426.55	10.567
426.75	9.761
426.96	9.740
427.16	9.781
427.36	10.164
427.57	10.505
427.77	9.395
427.97	10.642
428.17	10.184
428.38	10.593
428.58	8.089
428.78	10.095
428.98	8.253
429.19	9.545
429.39	7.968
429.59	9.911
429.79	8.564
430.00	8.053
430.20	7.705
430.40	9.398
430.60	8.433
430.81	8.933
431.01	8.019
431.21	8.963
431.41	7.852
431.62	9.290
431.82	7.865
432.02	9.863
432.22	8.516
432.43	8.206
432.63	7.908
432.83	9.339
433.03	8.932
433.24	8.619
433.44	8.506
433.64	9.475
433.84	8.547
434.05	9.436
434.25	8.418
434.45	9.692
434.65	9.401
434.85	9.653
435.06	9.120
435.26	9.295
435.46	9.183
435.66	9.466
435.87	8.863
436.07	9.064
436.27	9.246
436.47	9.266
436.67	8.278
436.88	9.367
437.08	8.879
437.28	9.115
437.48	8.967
437.69	9.378
437.89	8.857
438.09	9.521
438.29	8.356
438.49	9.380
438.70	9.249
438.90	8.429
439.10	8.617
439.30	8.610
439.50	8.513
439.71	9.376
439.91	8.854
440.11	9.486
440.31	8.899
440.51	8.666
440.72	8.494
440.92	9.078
441.12	9.059
441.32	9.826
441.52	9.534
441.72	9.563
441.93	9.463
442.13	9.662
442.33	8.739
442.53	9.358
442.73	8.437
442.94	9.515
443.14	8.811
443.34	9.459
443.54	9.308
443.74	9.463
443.94	8.957
444.15	8.713
444.35	8.508
444.55	9.170
444.75	8.763
444.95	9.126
445.15	8.696
445.36	9.159
445.56	7.917
445.76	9.123
445.96	8.579
446.16	9.185
446.36	8.518
446.57	9.064
446.77	8.232
446.97	9.060
447.17	9.213
447.37	9.144
447.57	9.416
447.77	9.274
447.98	8.756
448.18	9.611
448.38	9.044
448.58	9.354
448.78	9.143
448.98	9.469
449.18	9.187
449.39	8.776
449.59	9.083
449.79	9.004
449.99	9.003
450.19	9.191
450.39	8.912
450.59	9.209
450.79	8.154
451.00	9.439
451.20	9.636
451.40	8.073
451.60	8.192
451.80	9.067
452.00	8.368
452.20	9.121
452.40	8.769
452.61	7.980
452.81	7.662
453.01	8.667
453.21	8.410
453.41	8.549
453.61	8.415
453.81	8.564
454.01	7.910
454.21	8.396
454.42	8.742
454.62	8.553
454.82	8.348
455.02	8.670
455.22	8.045
455.42	8.107
455.62	7.586
455.82	8.070
456.02	7.789
456.23	8.214
456.43	8.497
456.63	8.271
456.83	7.534
457.03	8.544
457.23	8.216
457.43	9.221
457.63	8.065
457.83	8.495
458.03	7.620
458.23	8.609
458.43	7.543
458.64	9.016
458.84	8.543
459.04	8.506
459.24	8.481
459.44	8.397
459.64	8.438
459.84	9.168
460.04	8.096
460.24	8.530
460.44	8.576
460.64	9.295
460.84	8.252
461.04	8.991
461.24	8.859
461.45	9.418
461.65	8.943
461.85	9.057
462.05	8.492
462.25	9.147
462.45	9.415
462.65	8.885
462.85	7.881
463.05	8.917
463.25	7.383
463.45	8.997
463.65	8.788
463.85	8.316
464.05	8.224
464.25	7.925
464.45	8.539
464.65	8.218
464.85	7.936
465.05	8.189
465.26	8.129
465.46	9.057
465.66	8.396
465.86	8.314
466.06	7.897
466.26	8.657
466.46	7.331
466.66	8.250
466.86	7.790
467.06	8.405
467.26	7.963
467.46	8.775
467.66	8.119
467.86	8.115
468.06	7.874
468.26	8.080
468.46	8.049
468.66	8.598
468.86	7.570
469.06	8.730
469.26	7.357
469.46	8.558
469.66	7.501
469.86	8.688
470.06	7.563
470.26	8.598
470.46	7.438
470.66	8.983
470.86	7.461
471.06	8.052
471.26	7.026
471.46	7.662
471.66	7.798
471.86	8.531
472.06	7.798
472.26	9.119
472.46	8.848
472.66	8.526
472.86	7.400
473.06	7.867
473.26	7.756
473.46	8.027
473.66	7.553
473.86	8.660
474.06	7.613
474.26	8.267
474.46	7.443
474.66	8.328
474.86	8.397
475.06	8.646
475.26	6.805
475.46	8.239
475.66	7.125
475.86	8.212
476.06	8.571
476.26	8.758
476.46	7.746
476.66	8.263
476.86	7.431
477.06	7.544
477.26	7.422
477.46	8.213
477.65	7.879
477.85	8.646
478.05	7.179
478.25	8.944
478.45	7.957
478.65	8.357
478.85	7.498
479.05	8.885
479.25	8.173
479.45	8.215
479.65	7.006
479.85	8.183
480.05	8.259
480.25	8.417
480.45	8.036
480.65	8.446
480.85	8.088
481.05	8.635
481.25	8.557
481.44	8.602
481.64	7.425
481.84	8.862
482.04	8.258
482.24	8.374
482.44	7.862
482.64	8.192
482.84	8.101
483.04	8.468
483.24	8.557
483.44	8.620
483.64	8.261
483.84	8.347
484.04	8.382
484.23	8.295
484.43	8.711
484.63	8.805
484.83	8.712
485.03	8.869
485.23	9.008
485.43	8.845
485.63	9.210
485.83	9.372
486.03	9.222
486.23	9.248
486.42	9.281
486.62	9.319
486.82	9.244
487.02	8.906
487.22	8.799
487.42	8.708
487.62	8.847
487.82	8.711
488.02	8.865
488.22	8.758
488.41	8.546
488.61	8.790
488.81	8.696
489.01	8.895
489.21	9.047
489.41	9.066
489.61	8.982
489.81	9.378
490.01	9.121
490.20	9.236
490.40	9.081
490.60	9.145
490.80	8.693
491.00	9.048
491.20	8.713
491.40	8.616
491.60	8.516
491.79	8.729
491.99	8.511
492.19	8.615
492.39	8.777
492.59	8.635
492.79	8.765
492.99	8.787
493.19	9.067
493.38	9.099
493.58	8.867
493.78	9.225
493.98	9.248
494.18	9.390
494.38	9.168
494.58	9.070
494.77	8.357
494.97	8.558
495.17	8.413
495.37	8.772
495.57	8.638
495.77	8.730
495.96	8.385
496.16	8.050
496.36	7.828
496.56	8.404
496.76	7.511
496.96	8.632
497.15	8.297
497.35	8.409
497.55	8.351
497.75	9.055
497.95	8.011
498.15	8.807
498.34	8.379
498.54	8.472
498.74	8.504
498.94	9.082
499.14	8.122
499.34	8.823
499.53	8.125
499.73	8.844
499.93	8.249
500.13	8.693
500.33	8.014
500.52	8.741
500.72	8.227
500.92	8.481
501.12	7.927
501.32	8.542
501.52	8.175
501.71	8.400
501.91	7.758
502.11	8.619
502.31	8.053
502.51	8.743
502.70	7.667
502.90	8.152
503.10	7.826
503.30	8.832
503.50	8.194
503.69	8.543
503.89	8.439
504.09	8.714
504.29	8.005
504.48	8.826
504.68	8.749
504.88	8.651
505.08	8.160
505.28	8.594
505.47	8.350
505.67	8.850
505.87	8.660
506.07	8.367
506.27	8.398
506.46	8.557
506.66	8.163
506.86	8.939
507.06	8.717
507.25	8.566
507.45	8.181
507.65	8.633
507.85	8.214
508.04	8.898
508.24	8.451
508.44	8.644
508.64	7.983
508.83	8.770
509.03	8.360
509.23	8.720
509.43	8.498
509.63	8.551
509.82	8.529
510.02	8.925
510.22	8.615
510.42	8.934
510.61	8.920
510.81	8.718
511.01	8.557
511.21	8.798
511.40	8.886
511.60	8.893
511.80	8.733
511.99	8.863
512.19	9.167
512.39	9.196
512.59	8.556
512.78	8.759
512.98	8.616
513.18	8.902
513.38	8.627
513.57	9.351
513.77	8.834
513.97	9.304
514.17	8.612
514.36	8.750
514.56	8.719
514.76	9.224
514.95	8.352
515.15	8.909
515.35	8.130
515.55	8.891
515.74	8.753
515.94	9.247
516.14	8.559
516.33	9.373
516.53	8.352
516.73	8.405
516.93	8.978
517.12	9.405
517.32	8.146
517.52	8.731
517.71	8.543
517.91	8.915
518.11	8.683
518.30	8.889
518.50	8.376
518.70	9.146
518.90	8.796
519.09	8.877
519.29	8.815
519.49	9.380
519.68	8.653
519.88	9.186
520.08	9.006
520.27	9.339
520.47	8.956
520.67	9.373
520.86	9.249
521.06	9.540
521.26	9.142
521.45	9.369
521.65	8.796
521.85	9.306
522.04	8.283
522.24	8.880
522.44	8.890
522.63	9.026
522.83	8.675
523.03	8.922
523.22	8.329
523.42	9.515
523.62	9.272
523.81	9.330
524.01	8.803
524.21	9.115
524.40	8.019
524.60	8.981
524.80	8.718
524.99	9.042
525.19	9.075
525.39	9.076
525.58	8.921
525.78	9.023
525.98	9.150
526.17	9.290
526.37	9.051
526.57	9.077
526.76	9.358
526.96	9.309
527.15	9.214
527.35	9.480
527.55	9.131
527.74	9.783
527.94	9.530
528.14	8.944
528.33	8.994
528.53	8.982
528.72	9.249
528.92	9.270
529.12	9.186
529.31	9.248
529.51	9.287
529.71	9.353
529.90	9.490
530.10	9.547
530.29	9.568
530.49	9.794
530.69	9.849
530.88	9.720
531.08	9.735
531.28	9.774
531.47	9.727
531.67	9.894
531.86	9.642
532.06	9.595
532.26	9.751
532.45	9.538
532.65	9.513
532.84	9.419
533.04	9.252
533.24	9.424
533.43	9.363
533.63	9.652
533.82	9.409
534.02	9.485
534.22	9.435
534.41	9.461
534.61	9.811
534.80	9.690
535.00	9.705
535.19	9.924
535.39	9.829
535.59	9.959
535.78	9.667
535.98	9.586
536.17	9.768
536.37	9.539
536.57	9.517
536.76	9.927
536.96	9.535
537.15	10.122
537.35	9.253
537.54	9.716
537.74	9.866
537.93	10.145
538.13	9.683
538.33	10.252
538.52	10.078
538.72	9.672
538.91	10.096
539.11	9.972
539.30	9.537
539.50	9.955
539.70	9.665
539.89	9.917
540.09	9.546
540.28	9.869
540.48	9.287
540.67	9.926
540.87	9.380
541.06	9.859
541.26	9.197
541.45	9.938
541.65	9.830
541.85	9.746
542.04	10.051
542.24	9.958
542.43	9.938
542.63	9.984
542.82	10.090
543.02	10.124
543.21	10.057
543.41	10.272
543.60	10.466
543.80	10.569
543.99	10.590
544.19	10.304
544.38	10.390
544.58	10.672
544.77	10.302
544.97	10.907
545.16	10.079
545.36	10.668
545.56	10.210
545.75	10.485
545.95	10.353
546.14	10.708
546.34	9.688
546.53	10.867
546.73	10.117
546.92	10.656
547.12	10.434
547.31	10.746
547.51	10.434
547.70	10.835
547.90	10.403
548.09	11.066
548.29	10.957
548.48	10.711
548.68	10.631
548.87	11.145
549.07	10.611
549.26	10.617
549.46	10.844
549.65	11.060
549.84	11.031
550.04	10.755
550.23	10.227
550.43	10.642
550.62	10.272
550.82	10.949
551.01	10.073
551.21	10.779
551.40	10.549
551.60	10.954
551.79	10.232
551.99	10.983
552.18	10.451
552.38	10.666
552.57	10.926
552.77	11.136
552.96	10.687
553.16	11.057
553.35	11.154
553.54	11.762
553.74	11.071
553.93	11.446
554.13	11.503
554.32	11.045
554.52	10.649
554.71	11.924
554.91	11.150
555.10	11.875
555.29	11.154
555.49	12.457
555.68	11.213
555.88	12.248
556.07	11.450
556.27	12.082
556.46	11.556
556.66	11.471
556.85	11.469
557.04	12.422
557.24	11.754
557.43	12.368
557.63	11.862
557.82	11.887
558.02	11.834
558.21	12.465
558.40	12.078
558.60	12.543
558.79	12.196
558.99	12.714
559.18	12.343
559.38	11.823
559.57	12.508
559.76	12.785
559.96	12.964
560.15	12.416
560.35	12.038
560.54	12.873
560.73	11.765
560.93	13.005
561.12	12.520
561.32	13.523
561.51	13.113
561.70	13.226
561.90	12.831
562.09	13.180
562.29	12.830
562.48	13.578
562.67	13.211
562.87	13.611
563.06	13.370
563.26	14.316
563.45	13.000
563.64	14.054
563.84	13.865
564.03	14.167
564.23	13.793
564.42	14.866
564.61	13.901
564.81	14.538
565.00	14.480
565.20	14.356
565.39	14.736
565.58	13.963
565.78	13.706
565.97	14.489
566.16	15.288
566.36	15.050
566.55	14.859
566.74	15.333
566.94	15.130
567.13	15.222
567.33	14.805
567.52	15.346
567.71	15.471
567.91	15.416
568.10	15.233
568.29	15.667
568.49	15.228
568.68	15.772
568.87	15.725
569.07	15.754
569.26	15.633
569.45	15.362
569.65	15.576
569.84	15.625
570.04	15.939
570.23	16.133
570.42	14.724
570.62	15.761
570.81	15.947
571.00	16.459
571.20	16.253
571.39	16.061
571.58	16.343
571.78	16.492
571.97	16.268
572.16	16.055
572.36	15.940
572.55	15.852
572.74	16.511
572.94	16.103
573.13	16.514
573.32	16.884
573.51	16.486
573.71	16.928
573.90	16.589
574.09	16.684
574.29	16.183
574.48	17.088
574.67	16.649
574.87	16.981
575.06	16.740
575.25	16.954
575.45	16.682
575.64	16.932
575.83	16.454
576.03	17.318
576.22	17.244
576.41	17.126
576.60	16.589
576.80	17.201
576.99	17.062
577.18	17.259
577.38	16.936
577.57	17.535
577.76	17.416
577.95	17.674
578.15	17.070
578.34	17.610
578.53	17.050
578.73	17.343
578.92	16.911
579.11	16.758
579.30	17.196
579.50	16.993
579.69	17.286
579.88	16.560
580.08	16.961
580.27	17.127
580.46	16.765
580.65	17.115
580.85	17.303
581.04	17.285
581.23	16.369
581.42	17.328
581.62	16.815
581.81	17.249
582.00	17.530
582.19	16.443
582.39	17.280
582.58	16.456
582.77	17.534
582.96	16.571
583.16	16.491
583.35	17.186
583.54	16.700
583.73	17.251
583.93	16.110
584.12	17.145
584.31	16.431
584.50	17.393
584.70	16.458
584.89	17.090
585.08	16.892
585.27	18.147
585.47	16.164
585.66	16.867
585.85	17.023
586.04	17.145
586.24	16.730
586.43	16.263
586.62	15.810
586.81	17.060
587.00	16.197
587.20	16.131
587.39	15.552
587.58	16.620
587.77	17.042
587.97	15.963
588.16	16.343
588.35	17.073
588.54	15.542
588.73	16.625
588.93	16.800
589.12	16.369
589.31	16.483
589.50	16.256
589.69	16.602
589.89	16.971
590.08	16.011
590.27	16.390
590.46	15.990
590.65	16.200
590.85	15.445
591.04	16.483
591.23	16.571
591.42	16.923
591.61	15.935
591.81	17.009
592.00	16.644
592.19	16.624
592.38	15.685
592.57	16.227
592.77	16.984
592.96	16.733
593.15	17.173
593.34	16.333
593.53	16.640
593.72	16.673
593.92	16.622
594.11	17.085
594.30	15.988
594.49	16.577
594.68	16.567
594.87	17.070
595.07	15.991
595.26	17.061
595.45	16.648
595.64	16.922
595.83	16.134
596.02	17.266
596.22	16.918
596.41	17.791
596.60	16.408
596.79	17.238
596.98	17.031
597.17	17.302
597.37	16.760
597.56	17.741
597.75	16.753
597.94	17.525
598.13	18.041
598.32	17.318
598.51	17.198
598.71	18.015
598.90	17.290
599.09	17.801
599.28	17.292
599.47	17.486
599.66	17.465
599.85	17.807
600.05	17.274
600.24	18.152
600.43	17.454
600.62	18.341
600.81	17.682
601.00	18.779
601.19	16.963
601.38	18.057
601.58	18.591
601.77	17.870
601.96	17.974
602.15	18.273
602.34	18.306
602.53	18.746
602.72	17.315
602.91	18.361
603.10	18.455
603.30	18.733
603.49	17.770
603.68	19.051
603.87	17.396
604.06	18.309
604.25	18.187
604.44	18.190
604.63	18.068
604.82	18.161
605.01	18.197
605.21	18.378
605.40	17.671
605.59	17.900
605.78	18.671
605.97	18.166
606.16	18.493
606.35	18.637
606.54	18.523
606.73	18.674
606.92	18.183
607.11	18.982
607.30	17.556
607.50	18.598
607.69	17.691
607.88	18.322
608.07	17.932
608.26	18.283
608.45	17.792
608.64	18.978
608.83	17.506
609.02	18.396
609.21	18.397
609.40	18.374
609.59	17.518
609.78	17.557
609.97	17.238
610.16	18.396
610.35	17.741
610.55	17.978
610.74	17.497
610.93	18.005
611.12	17.676
611.31	18.293
611.50	16.971
611.69	17.157
611.88	17.439
612.07	17.940
612.26	17.739
612.45	17.683
612.64	17.800
612.83	17.377
613.02	16.800
613.21	16.962
613.40	16.864
613.59	18.677
613.78	16.312
613.97	17.002
614.16	17.428
614.35	16.634
614.54	14.933
614.73	17.407
614.92	16.354
615.11	16.202
615.30	16.444
615.49	15.924
615.68	15.698
615.87	15.676
616.07	15.740
616.26	16.637
616.45	15.971
616.64	15.236
616.83	15.577
617.02	15.594
617.21	14.100
617.40	14.941
617.59	15.399
617.78	15.837
617.97	15.631
618.16	14.825
618.35	13.973
618.54	15.580
618.73	14.344
618.92	14.733
619.11	14.849
619.30	15.661
619.49	14.001
619.68	15.101
619.86	14.982
620.05	14.440
620.24	14.407
620.43	15.085
620.62	13.117
620.81	15.177
621.00	14.621
621.19	15.631
621.38	14.674
621.57	14.221
621.76	14.853
621.95	15.503
622.14	14.957
622.33	15.818
622.52	14.041
622.71	14.569
622.90	13.774
623.09	14.953
623.28	13.907
623.47	14.245
623.66	14.336
623.85	13.369
624.04	13.894
624.23	14.803
624.42	13.769
624.61	14.409
624.80	13.887
624.99	13.884
625.18	13.761
625.36	15.795
625.55	14.031
625.74	14.823
625.93	13.411
626.12	14.252
626.31	14.847
626.50	14.673
626.69	14.224
626.88	15.481
627.07	14.367
627.26	13.776
627.45	14.202
627.64	13.991
627.83	13.914
628.02	14.568
628.20	14.513
628.39	14.999
628.58	14.721
628.77	14.755
628.96	13.831
629.15	14.067
629.34	14.520
629.53	14.467
629.72	12.603
629.91	15.475
630.10	13.759
630.29	13.928
630.47	13.459
630.66	13.573
630.85	13.764
631.04	14.551
631.23	13.908
631.42	14.572
631.61	13.464
631.80	14.341
631.99	13.093
632.18	13.354
632.36	12.366
632.55	15.421
632.74	12.875
632.93	12.929
633.12	13.063
633.31	13.395
633.50	13.236
633.69	14.915
633.88	12.876
634.06	13.370
634.25	13.354
634.44	13.232
634.63	13.902
634.82	14.651
635.01	13.387
635.20	13.448
635.39	12.746
635.57	13.413
635.76	13.848
635.95	13.868
636.14	12.295
636.33	13.793
636.52	13.204
636.71	13.035
636.89	12.131
637.08	13.653
637.27	11.329
637.46	12.715
637.65	13.157
637.84	13.800
638.03	11.612
638.21	14.813
638.40	13.017
638.59	12.812
638.78	13.254
638.97	13.892
639.16	13.001
639.34	13.369
639.53	11.844
639.72	12.768
639.91	11.954
640.10	12.080
640.29	14.582
640.47	14.003
640.66	12.676
640.85	14.707
641.04	10.988
641.23	13.073
641.42	11.610
641.60	12.659
641.79	11.687
641.98	13.455
642.17	12.063
642.36	13.780
642.54	11.624
642.73	13.225
642.92	11.710
643.11	12.505
643.30	11.580
643.49	13.555
643.67	11.429
643.86	12.402
644.05	10.856
644.24	12.789
644.43	12.724
644.61	14.065
644.80	12.159
644.99	13.114
645.18	13.169
645.37	13.007
645.55	11.979
645.74	12.935
645.93	13.044
646.12	13.103
646.31	11.872
646.49	13.487
646.68	12.485
646.87	13.299
647.06	12.062
647.24	12.798
647.43	10.905
647.62	14.172
647.81	11.634
648.00	13.053
648.18	10.530
648.37	11.275
648.56	12.664
648.75	12.630
648.93	12.155
649.12	12.990
649.31	12.939
649.50	12.307
649.68	12.151
649.87	11.574
650.06	10.616
650.25	12.114
650.43	11.032
650.62	11.609
650.81	11.703
651.00	10.524
651.18	11.144
651.37	13.009
651.56	11.490
651.75	13.498
651.93	11.246
652.12	13.116
652.31	10.604
652.50	12.680
652.68	11.867
652.87	13.235
653.06	12.071
653.25	12.028
653.43	11.733
653.62	12.811
653.81	11.546
654.00	12.842
654.18	11.002
654.37	12.457
654.56	11.429
654.74	11.305
654.93	11.176
655.12	11.366
655.31	11.575
655.49	12.645
655.68	10.769
655.87	9.835
656.05	10.168
656.24	10.921
656.43	10.047
656.62	10.352
656.80	11.134
656.99	9.999
657.18	9.283
657.36	11.748
657.55	10.280
657.74	10.727
657.93	10.751
658.11	11.704
658.30	11.327
658.49	9.619
658.67	11.427
658.86	9.589
659.05	10.045
659.23	11.730
659.42	9.233
659.61	11.451
659.79	10.182
659.98	10.949
660.17	11.320
660.35	11.079
660.54	10.457
660.73	12.580
660.91	10.036
661.10	10.401
661.29	9.490
661.47	9.125
661.66	9.615
661.85	9.492
662.03	10.471
662.22	7.988
662.41	8.535
662.59	9.311
662.78	8.862
662.97	9.085
663.15	8.399
663.34	8.310
663.53	7.979
663.71	8.670
663.90	7.989
664.09	9.457
664.27	9.365
664.46	8.913
664.65	8.858
664.83	7.811
665.02	8.311
665.21	7.028
665.39	6.014
665.58	9.190
665.77	8.467
665.95	9.135
666.14	6.088
666.32	8.258
666.51	7.127
666.70	7.981
666.88	7.712
667.07	8.587
667.26	7.939
667.44	7.364
667.63	8.549
667.81	6.387
668.00	8.206
668.19	9.498
668.37	7.107
668.56	9.180
668.75	6.188
668.93	10.599
669.12	7.380
669.30	10.034
669.49	8.528
669.68	9.255
669.86	9.203
670.05	7.514
670.23	7.670
670.42	7.849
670.61	8.906
670.79	9.078
670.98	7.552
671.16	9.663
671.35	6.888
671.54	9.460
671.72	8.361
671.91	9.648
672.09	7.024
672.28	11.091
672.46	9.898
672.65	10.660
672.84	9.899
673.02	10.561
673.21	7.143
673.39	7.733
673.58	10.062
673.77	10.526
673.95	8.584
674.14	10.848
674.32	8.719
674.51	11.207
674.69	9.288
674.88	9.024
675.07	9.857
675.25	13.434
675.44	10.402
675.62	10.035
675.81	10.231
675.99	13.920
676.18	10.232
676.36	10.998
676.55	9.974
676.74	12.268
676.92	12.346
677.11	11.489
677.29	10.747
677.48	12.349
677.66	11.592
677.85	11.694
678.03	10.778
678.22	12.572
678.40	12.236
678.59	10.458
678.78	10.200
678.96	10.542
679.15	9.540
679.33	14.204
679.52	13.379
679.70	12.600
679.89	12.228
680.07	11.662
680.26	10.022
680.44	11.604
680.63	11.489
680.81	10.896
681.00	9.954
681.18	11.904
681.37	10.797
681.55	13.464
681.74	13.397
681.92	12.287
682.11	12.689
682.29	11.910
682.48	12.081
682.66	13.640
682.85	12.297
683.03	12.719
683.22	13.465
683.40	14.397
683.59	13.742
683.77	13.267
683.96	10.943
684.14	14.744
684.33	10.680
684.51	16.308
684.70	13.760
684.88	17.070
685.07	13.770
685.25	14.328
685.44	13.923
685.62	13.872
685.81	13.510
685.99	15.098
686.18	13.320
686.36	14.650
686.55	12.343
686.73	13.181
686.92	15.752
687.10	15.599
687.29	16.499
687.47	17.400
687.65	16.419
687.84	15.361
688.02	16.910
688.21	18.316
688.39	13.587
688.58	18.761
688.76	15.256
688.95	15.700
689.13	13.630
689.32	17.650
689.50	16.633
689.68	19.445
689.87	16.946
690.05	19.297
690.24	18.062
690.42	18.990
690.61	19.284
690.79	21.296
690.98	19.588
691.16	21.200
691.34	18.167
691.53	20.384
691.71	18.339
691.90	20.658
692.08	18.982
692.27	22.466
692.45	23.066
692.63	21.710
692.82	24.153
693.00	22.642
693.19	20.603
693.37	24.493
693.56	22.830
693.74	25.470
693.92	24.079
694.11	25.317
694.29	24.284
694.48	27.088
694.66	25.286
694.84	27.589
695.03	25.454
695.21	27.848
695.40	26.819
695.58	27.199
695.76	28.491
695.95	30.275
696.13	29.003
696.32	30.905
696.50	32.252
696.68	31.971
696.87	29.103
697.05	32.012
697.24	29.410
697.42	33.862
697.60	32.376
697.79	33.065
697.97	33.548
698.16	34.425
698.34	32.664
698.52	34.335
698.71	32.608
698.89	33.393
699.07	34.000
699.26	35.736
699.44	33.904
699.63	35.879
699.81	34.798
699.99	37.461
700.18	35.375
700.36	37.666
700.54	37.679
700.73	37.936
700.91	37.776
701.09	37.585
701.28	39.304
701.46	40.690
701.64	39.256
701.83	40.487
702.01	40.538
702.20	42.554
702.38	42.912
702.56	40.687
702.75	44.411
702.93	44.079
703.11	43.495
703.30	45.584
703.48	46.405
703.66	47.485
703.85	45.201
704.03	48.074
704.21	44.902
704.40	48.268
704.58	45.936
704.76	46.163
704.95	46.582
705.13	48.456
705.31	48.158
705.50	49.600
705.68	48.657
705.86	50.020
706.04	46.474
706.23	50.663
706.41	51.265
706.59	48.650
706.78	49.338
706.96	49.548
707.14	49.844
707.33	51.067
707.51	49.821
707.69	51.985
707.88	51.731
708.06	50.727
708.24	52.581
708.42	51.905
708.61	50.370
708.79	51.149
708.97	52.989
709.16	51.379
709.34	55.037
709.52	52.119
709.71	52.516
709.89	54.174
710.07	52.239
710.25	53.970
710.44	56.243
710.62	52.958
710.80	52.264
710.98	54.147
711.17	55.698
711.35	55.065
711.53	54.063
711.72	53.236
711.90	55.796
712.08	54.810
712.26	54.327
712.45	55.558
712.63	54.434
712.81	55.615
712.99	56.130
713.18	53.755
713.36	54.345
713.54	54.528
713.72	53.207
713.91	56.575
714.09	53.579
714.27	55.939
714.45	56.081
714.64	54.857
714.82	56.270
715.00	56.613
715.18	54.489
715.37	56.603
715.55	54.676
715.73	57.020
715.91	55.494
716.10	56.584
716.28	53.860
716.46	55.823
716.64	55.504
716.83	58.273
717.01	57.809
717.19	57.709
717.37	56.822
717.55	57.103
717.74	57.564
717.92	54.649
718.10	56.308
718.28	56.531
718.47	55.464
718.65	58.466
718.83	57.319
719.01	59.543
719.19	57.097
719.38	56.264
719.56	57.038
719.74	57.958
719.92	56.627
720.10	58.667
720.29	59.233
720.47	61.052
720.65	60.290
720.83	60.938
721.01	56.769
721.20	58.743
721.38	59.586
721.56	60.514
721.74	61.544
721.92	61.708
722.11	61.723
722.29	61.514
722.47	60.648
722.65	62.160
722.83	63.286
723.01	61.034
723.20	64.439
723.38	63.994
723.56	61.254
723.74	63.509
723.92	60.036
724.10	63.667
724.29	58.113
724.47	60.723
724.65	59.539
724.83	64.074
725.01	58.446
725.19	61.735
725.38	61.445
725.56	63.054
725.74	62.306
725.92	63.119
726.10	63.090
726.28	62.014
726.46	63.947
726.65	64.154
726.83	61.360
727.01	63.452
727.19	60.896
727.37	62.366
727.55	61.255
727.73	60.114
727.92	63.142
728.10	63.089
728.28	61.286
728.46	61.222
728.64	64.228
728.82	63.047
729.00	62.946
729.19	62.073
729.37	60.585
729.55	62.338
729.73	59.328
729.91	63.205
730.09	58.809
730.27	62.506
730.45	60.681
730.63	61.109
730.82	61.187
731.00	63.332
731.18	61.426
731.36	62.027
731.54	63.103
731.72	63.305
731.90	62.959
732.08	62.368
732.26	62.414
732.45	63.186
732.63	64.061
732.81	62.207
732.99	63.336
733.17	65.266
733.35	62.954
733.53	65.284
733.71	61.666
733.89	64.932
734.07	63.170
734.25	64.678
734.44	62.825
734.62	63.593
734.80	63.063
734.98	67.304
735.16	65.504
735.34	65.082
735.52	64.449
735.70	66.002
735.88	65.318
736.06	67.258
736.24	68.084
736.42	70.743
736.60	66.418
736.78	71.283
736.97	69.420
737.15	70.417
737.33	68.870
737.51	69.319
737.69	66.555
737.87	69.183
738.05	68.354
738.23	67.828
738.41	68.690
738.59	69.909
738.77	69.375
738.95	69.632
739.13	68.074
739.31	68.495
739.49	70.357
739.67	71.951
739.85	66.362
740.03	68.911
740.21	69.955
740.39	69.371
740.57	66.841
740.75	69.302
740.93	67.231
741.11	66.872
741.30	66.793
741.48	72.442
741.66	69.075
741.84	71.887
742.02	66.224
742.20	68.712
742.38	68.405
742.56	71.677
742.74	69.430
742.92	70.348
743.10	72.888
743.28	70.679
743.46	68.880
743.64	72.451
743.82	68.024
744.00	72.712
744.18	71.595
744.36	70.577
744.54	68.710
744.72	71.004
744.90	72.820
745.08	71.022
745.26	68.101
745.44	75.670
745.62	69.180
745.80	72.404
745.98	70.262
746.16	68.823
746.34	72.327
746.52	68.975
746.70	70.890
746.87	75.102
747.05	75.896
747.23	72.170
747.41	74.249
747.59	72.795
747.77	70.025
747.95	71.721
748.13	73.447
748.31	77.080
748.49	72.350
748.67	74.254
748.85	74.226
749.03	70.602
749.21	71.040
749.39	72.832
749.57	69.551
749.75	70.797
749.93	68.858
750.11	69.865
750.29	71.162
750.47	71.054
750.65	74.383
750.83	69.880
751.01	70.645
751.18	73.341
751.36	69.887
751.54	72.991
751.72	73.279
751.90	69.851
752.08	71.193
752.26	74.394
752.44	70.400
752.62	71.958
752.80	71.641
752.98	71.872
753.16	73.076
753.34	68.873
753.52	68.744
753.69	73.317
753.87	72.077
754.05	71.777
754.23	72.576
754.41	71.965
754.59	71.328
754.77	70.163
754.95	70.897
755.13	72.376
755.31	75.897
755.49	72.899
755.66	70.327
755.84	69.906
756.02	69.323
756.20	69.285
756.38	70.112
756.56	71.693
756.74	70.265
756.92	70.354
757.10	73.484
757.28	72.550
757.45	75.336
757.63	73.343
757.81	71.146
757.99	75.405
758.17	70.619
758.35	70.787
758.53	71.167
758.71	72.043
758.88	66.759
759.06	69.294
759.24	67.316
759.42	64.451
759.60	62.320
759.78	63.883
759.96	61.893
760.13	65.213
760.31	60.125
760.49	60.288
760.67	58.967
760.85	56.834
761.03	57.308
761.21	55.824
761.38	54.860
761.56	58.330
761.74	52.847
761.92	57.803
762.10	54.882
762.28	58.315
762.46	56.283
762.63	55.884
762.81	60.275
762.99	59.736
763.17	55.061
763.35	56.975
763.53	56.816
763.70	58.659
763.88	58.284
764.06	57.006
764.24	55.277
764.42	57.693
764.60	56.580
764.77	57.001
764.95	57.143
765.13	59.130
765.31	57.430
765.49	58.136
765.66	58.550
765.84	60.937
766.02	61.145
766.20	62.641
766.38	61.222
766.56	63.683
766.73	62.769
766.91	64.444
767.09	65.325
767.27	65.625
767.45	66.486
767.62	68.896
767.80	64.600
767.98	68.441
768.16	66.010
768.33	68.916
768.51	68.653
768.69	69.792
768.87	66.759
769.05	68.461
769.22	68.778
769.40	72.617
769.58	70.133
769.76	74.147
769.94	71.587
770.11	74.252
770.29	73.313
770.47	72.688
770.65	67.403
770.82	73.318
771.00	77.929
771.18	71.975
771.36	75.181
771.53	74.043
771.71	71.885
771.89	75.857
772.07	72.250
772.25	76.095
772.42	70.860
772.60	72.426
772.78	75.050
772.96	68.723
773.13	76.606
773.31	73.855
773.49	73.751
773.67	70.401
773.84	68.716
774.02	73.310
774.20	69.379
774.37	74.771
774.55	70.555
774.73	73.523
774.91	73.731
775.08	77.759
775.26	76.164
775.44	74.907
775.62	73.169
775.79	74.084
775.97	76.316
776.15	76.008
776.32	69.897
776.50	78.318
776.68	71.510
776.86	79.231
777.03	74.659
777.21	79.434
777.39	66.098
777.56	77.042
777.74	72.151
777.92	73.138
778.10	76.699
778.27	78.046
778.45	72.629
778.63	76.943
778.80	76.764
778.98	77.967
779.16	77.796
779.34	78.071
779.51	75.362
779.69	76.751
779.87	79.637
780.04	74.297
780.22	71.695
780.40	74.041
780.57	77.016
780.75	73.209
780.93	72.027
781.10	74.723
781.28	77.318
781.46	79.627
781.63	78.525
781.81	76.516
781.99	76.699
782.16	74.226
782.34	71.671
782.52	73.987
782.69	74.319
782.87	74.394
783.05	72.142
783.22	78.110
783.40	73.678
783.58	81.312
783.75	74.583
783.93	74.201
784.11	71.980
784.28	79.287
784.46	72.738
784.64	74.875
784.81	69.009
784.99	81.465
785.17	74.806
785.34	72.788
785.52	73.199
785.69	78.734
785.87	70.951
786.05	74.365
786.22	72.948
786.40	83.122
786.58	76.733
786.75	80.240
786.93	76.777
787.11	75.726
787.28	74.617
787.46	81.918
787.63	69.842
787.81	70.082
787.99	67.774
788.16	69.852
788.34	67.990
788.51	72.450
788.69	68.192
788.87	68.553
789.04	72.302
789.22	71.376
789.39	69.649
789.57	66.614
789.75	66.424
789.92	72.410
790.10	69.050
790.27	72.382
790.45	67.470
790.63	71.982
790.80	61.420
790.98	67.363
791.15	68.669
791.33	71.377
791.51	71.848
791.68	70.800
791.86	69.079
792.03	75.794
792.21	63.571
792.39	71.982
792.56	74.154
792.74	74.950
792.91	75.533
793.09	67.246
793.26	67.289
793.44	79.707
793.62	69.262
793.79	72.067
793.97	66.324
794.14	77.108
794.32	64.368
794.49	71.190
794.67	70.596
794.84	69.147
795.02	71.419
795.20	70.856
795.37	68.081
795.55	66.775
795.72	71.943
795.90	71.010
796.07	68.404
796.25	67.649
796.42	70.550
796.60	70.319
796.77	64.899
796.95	66.626
797.13	61.174
797.30	68.867
797.48	66.997
797.65	64.943
797.83	66.707
798.00	70.893
798.18	60.166
798.35	78.222
798.53	67.330
798.70	70.918
798.88	62.020
799.05	71.513
799.23	70.456
799.40	69.221
799.58	63.561
799.75	66.667
799.93	60.909
800.10	70.820
800.28	67.587
800.45	78.005
800.63	68.421
800.80	79.638
800.98	75.136
801.15	68.076
801.33	66.196
801.50	69.269
801.68	67.770
801.85	67.847
802.03	68.789
802.20	75.387
802.38	67.722
802.55	61.625
802.73	66.126
802.90	66.343
803.08	69.182
803.25	71.501
803.43	66.957
803.60	67.081
803.78	63.610
803.95	68.687
804.13	68.289
804.30	67.278
804.48	67.807
804.65	65.618
804.83	67.919
805.00	63.415
805.17	72.431
805.35	73.780
805.52	66.517
805.70	64.120
805.87	64.106
806.05	69.492
806.22	64.472
806.40	61.779
806.57	66.123
806.75	69.660
806.92	70.008
807.09	65.554
807.27	68.333
807.44	72.183
807.62	64.749
807.79	69.769
807.97	68.923
808.14	75.593
808.31	62.023
808.49	71.863
808.66	59.156
808.84	62.697
809.01	70.178
809.19	70.156
809.36	70.105
809.53	66.056
809.71	64.861
809.88	65.381
810.06	74.361
810.23	70.929
810.41	63.297
810.58	71.331
810.75	60.537
810.93	61.787
811.10	69.959
811.28	74.468
811.45	64.182
811.62	66.113
811.80	70.250
811.97	68.375
812.15	74.324
812.32	58.946
812.49	67.152
812.67	65.437
812.84	70.898
813.02	76.256
813.19	64.848
813.36	67.707
813.54	60.446
813.71	66.044
813.89	68.138
814.06	63.504
814.23	64.427
814.41	64.438
814.58	64.809
814.75	64.014
814.93	70.111
815.10	69.484
815.28	58.869
815.45	64.769
815.62	65.444
815.80	55.401
815.97	55.710
816.14	64.978
816.32	58.646
816.49	59.325
816.66	59.201
816.84	63.845
817.01	63.103
817.18	57.243
817.36	54.163
817.53	66.607
817.71	49.568
817.88	60.018
818.05	60.357
818.23	60.797
818.40	54.435
818.57	63.793
818.75	53.899
818.92	60.216
819.09	54.253
819.27	59.146
819.44	69.005
819.61	61.201
819.79	55.760
819.96	61.884
820.13	60.854
820.31	60.514
820.48	64.197
820.65	58.185
820.82	50.199
821.00	59.302
821.17	50.506
821.34	55.335
821.52	57.196
821.69	51.002
821.86	51.506
822.04	51.877
822.21	55.406
822.38	52.455
822.56	52.325
822.73	55.837
822.90	51.847
823.07	52.735
823.25	52.458
823.42	51.078
823.59	51.758
823.77	52.477
823.94	53.275
824.11	52.866
824.29	52.424
824.46	53.861
824.63	53.117
824.80	53.735
824.98	55.228
825.15	54.184
825.32	53.284
825.49	57.731
825.67	54.478
825.84	59.166
826.01	55.341
826.19	56.208
826.36	54.204
826.53	58.839
826.70	56.637
826.88	55.006
827.05	50.775
827.22	53.495
827.39	53.900
827.57	52.732
827.74	53.333
827.91	53.043
828.08	52.736
828.26	55.643
828.43	51.054
828.60	56.077
828.77	53.427
828.95	54.579
829.12	51.370
829.29	53.834
829.46	52.999
829.64	51.824
829.81	53.603
829.98	59.849
830.15	48.761
830.32	60.123
830.50	51.015
830.67	61.490
830.84	48.577
831.01	47.059
831.19	54.951
831.36	55.180
831.53	55.486
831.70	65.949
831.87	48.588
832.05	60.892
832.22	60.457
832.39	57.270
832.56	50.787
832.74	54.052
832.91	50.618
833.08	65.312
833.25	48.828
833.42	54.735
833.60	50.179
833.77	46.730
833.94	45.513
834.11	50.454
834.28	48.292
834.45	53.778
834.63	49.768
834.80	53.344
834.97	48.960
835.14	51.112
835.31	50.603
835.49	50.788
835.66	51.301
835.83	49.732
836.00	53.898
836.17	50.705
836.34	52.735
836.52	52.765
836.69	54.691
836.86	52.676
837.03	55.339
837.20	56.046
837.37	54.710
837.55	48.238
837.72	53.673
837.89	58.162
838.06	67.678
838.23	65.403
838.40	56.387
838.58	57.085
838.75	64.901
838.92	65.424
839.09	79.952
839.26	64.005
839.43	67.458
839.60	74.809
839.78	83.748
839.95	61.611
840.12	63.517
840.29	71.394
840.46	66.529
840.63	67.537
840.80	65.426
840.98	71.340
841.15	62.500
841.32	60.059
841.49	56.912
841.66	65.581
841.83	59.562
842.00	52.713
842.17	66.705
842.34	61.356
842.52	69.875
842.69	62.861
842.86	66.979
843.03	86.023
843.20	74.526
843.37	79.370
843.54	82.473
843.71	64.638
843.88	81.906
844.06	86.293
844.23	84.643
844.40	76.300
844.57	78.500
844.74	86.162
844.91	80.720
845.08	87.302
845.25	84.047
845.42	82.983
845.59	79.792
845.76	84.139
845.94	88.889
846.11	99.149
846.28	108.424
846.45	82.294
846.62	89.572
846.79	89.921
846.96	61.134
847.13	94.061
847.30	80.342
847.47	67.568
847.64	80.380
847.81	91.503
847.98	97.972
848.15	95.561
848.32	113.959
848.50	99.292
848.67	85.683
848.84	109.489
849.01	96.368
849.18	105.682
849.35	109.201
849.52	93.279
849.69	101.975
849.86	113.317
850.03	103.093
850.20	111.454
850.37	112.069
850.54	98.780
850.71	111.299
850.88	96.460
851.05	103.828
851.22	99.257
851.39	87.905
851.56	95.792
851.73	114.489
851.90	126.073
852.07	85.492
852.24	99.772
852.41	91.239
852.58	111.518
852.75	84.966
852.92	98.759
853.09	97.361
853.26	100.952
853.43	101.703
853.60	104.360
853.77	85.504
853.94	87.992
854.11	107.989
854.28	111.765
854.45	76.824
854.62	98.589
854.79	110.497
854.96	87.097
855.13	111.511
855.30	89.726
855.47	118.902
855.64	110.280
855.81	74.945
855.98	106.944
856.15	114.323
856.32	90.572
856.49	96.410
856.66	114.423
856.83	112.409
857.00	94.809
857.17	123.925
857.34	91.755
857.51	112.634
857.68	107.121
857.85	117.192
858.02	99.309
858.19	118.269
858.36	103.218
858.53	118.263
858.70	78.497
858.87	129.938
859.04	97.500
859.21	85.879
859.38	83.933
859.55	111.598
859.72	121.547
859.89	117.318
860.05	114.005
860.22	117.308
860.39	95.122
860.56	92.401
860.73	118.118
860.90	128.213
861.07	100.000
861.24	85.442
861.41	96.783
861.58	100.245
861.75	102.516
861.92	91.304
862.09	116.062
862.26	110.048
862.43	112.442
862.59	102.509
862.76	105.901
862.93	115.676
863.10	105.797
863.27	96.949
863.44	89.100
863.61	105.215
863.78	95.270
863.95	93.455
864.12	86.207
864.29	106.612
864.45	114.687
864.62	100.531
864.79	97.429
864.96	93.947
865.13	101.374
865.30	109.383
865.47	83.476
865.64	87.368
865.81	105.362
865.97	110.410
866.14	97.895
866.31	92.188
866.48	114.074
866.65	88.189
866.82	99.532
866.99	98.507
867.16	100.277
867.33	125.078
867.49	114.286
867.66	106.234
867.83	107.547
868.00	103.210
868.17	91.919
868.34	119.048
868.51	85.288
868.67	95.601
868.84	86.772
869.01	110.645
869.18	79.070
869.35	92.204
869.52	80.223
869.69	101.433
869.85	78.238
870.02	107.718
870.19	99.042
870.36	107.077
870.53	87.324
870.70	111.846
870.86	101.818
871.03	88.587
871.20	98.907
871.37	101.266
871.54	102.299
871.71	89.189
871.87	110.027
872.04	85.598
872.21	96.264
872.38	125.298
872.55	104.507
872.72	68.665
872.88	94.293
873.05	84.716
873.22	134.043
873.39	88.235
873.56	121.739
873.72	90.838
873.89	82.468
874.06	98.534
874.23	75.475
874.40	88.344
874.56	123.353
874.73	88.161
874.90	88.235
875.07	102.020
875.24	92.405
875.40	78.082
875.57	114.607
875.74	77.183
875.91	81.022
876.08	99.403
876.24	103.794
876.41	104.249
876.58	96.429
876.75	99.718
876.92	99.020
877.08	84.211
877.25	76.650
877.42	89.112
877.59	85.163
877.75	119.364
877.92	85.372
878.09	84.856
878.26	95.561
878.42	96.176
878.59	107.427
878.76	67.830
878.93	84.988
879.09	87.013
879.26	85.870
879.43	91.892
879.60	93.924
879.76	71.769
879.93	81.648
880.10	73.374
880.27	59.273
880.43	72.841
880.60	62.536
880.77	54.425
880.94	56.178
881.10	50.188
881.27	54.607
881.44	41.788
881.61	51.410
881.77	49.736
881.94	44.054
882.11	34.783
882.28	39.045
882.44	39.723
882.61	46.518
882.78	44.142
882.94	50.748
883.11	47.472
883.28	47.388
883.45	49.122
883.61	45.004
883.78	45.980
883.95	48.914
884.11	46.633
884.28	50.834
>>>>>End Processed Spectral Data<<<<<
