SpectraSuite Data File
++++++++++++++++++++++++++++++++++++
Date: Sun Sep 22 02:47:32 EST 2019
User: sgrac
Dark Spectrum Present: Yes
Reference Spectrum Present: Yes
Number of Sampled Component Spectra: 1
Spectrometers: USB4E01596
Integration Time (usec): 100000 (USB4E01596)
Spectra Averaged: 1 (USB4E01596)
Boxcar Smoothing: 0 (USB4E01596)
Correct for Electrical Dark: No (USB4E01596)
Strobe/Lamp Enabled: Yes (USB4E01596)
Correct for Detector Non-linearity: No (USB4E01596)
Correct for Stray Light: No (USB4E01596)
Number of Pixels in Processed Spectrum: 3648
>>>>>Begin Processed Spectral Data<<<<<
178.44	335.714
178.66	335.714
178.87	335.714
179.09	-5.556
179.30	-138.889
179.52	141.935
179.74	3700.000
179.95	144.444
180.17	3500.000
180.38	72.222
180.60	-331.250
180.82	650.000
181.03	-36.667
181.25	104.348
181.46	-94.643
181.68	-45.000
181.89	144.118
182.11	52.381
182.33	85.714
182.54	110.345
182.76	27.273
182.97	-14.286
183.19	92.308
183.40	9.524
183.62	25.926
183.84	-11.429
184.05	4000.000
184.27	57.500
184.48	38.298
184.70	171.429
184.91	100.000
185.13	-2200.000
185.34	185.714
185.56	-107.143
185.78	96.667
185.99	50.000
186.21	56.522
186.42	475.000
186.64	34.211
186.85	-62.500
187.07	106.250
187.28	225.000
187.50	-157.143
187.72	300.000
187.93	62.500
188.15	148.485
188.36	89.189
188.58	103.077
188.79	-22.581
189.01	157.692
189.22	-110.000
189.44	98.630
189.65	-2250.000
189.87	1040.000
190.09	0.000
190.30	158.333
190.52	76.923
190.73	117.391
190.95	203.571
191.16	-30.000
191.38	-253.846
191.59	-200.000
191.81	42.105
192.02	220.000
192.24	-2400.000
192.45	-220.000
192.67	106.250
192.88	75.758
193.10	-500.000
193.31	-178.571
193.53	890.000
193.74	-41.026
193.96	8.163
194.18	23.684
194.39	-1133.333
194.61	66.667
194.82	60.000
195.04	185.714
195.25	270.000
195.47	-123.529
195.68	-25.000
195.90	31.250
196.11	184.615
196.33	144.444
196.54	151.515
196.76	233.333
196.97	56.250
197.19	178.571
197.40	312.121
197.62	178.788
197.83	-525.000
198.05	633.333
198.26	71.642
198.48	206.667
198.69	-100.000
198.91	-1233.333
199.12	157.143
199.34	42.593
199.55	89.474
199.77	-42.105
199.98	-184.615
200.20	42.222
200.41	186.842
200.63	63.265
200.84	112.500
201.06	500.000
201.27	100.000
201.49	300.000
201.70	0.000
201.91	230.000
202.13	8.333
202.34	0.000
202.56	127.273
202.77	113.793
202.99	-66.667
203.20	-255.556
203.42	94.737
203.63	8.333
203.85	41.509
204.06	-46.154
204.28	13.333
204.49	-500.000
204.71	197.297
204.92	193.333
205.14	50.000
205.35	42.857
205.56	112.245
205.78	750.000
205.99	-500.000
206.21	158.824
206.42	28.333
206.64	-166.667
206.85	129.167
207.07	70.000
207.28	91.803
207.50	125.000
207.71	100.000
207.93	60.870
208.14	-130.000
208.35	400.000
208.57	230.000
208.78	60.870
209.00	51.515
209.21	54.545
209.43	28.986
209.64	587.500
209.86	-36.364
210.07	-130.769
210.28	-41.667
210.50	95.000
210.71	153.191
210.93	118.750
211.14	-2500.000
211.36	53.333
211.57	-1900.000
211.78	-700.000
212.00	-152.632
212.21	-160.000
212.43	57.447
212.64	27.273
212.86	48.276
213.07	-1175.000
213.29	70.833
213.50	-194.737
213.71	70.492
213.93	220.000
214.14	192.857
214.36	207.692
214.57	59.091
214.78	92.208
215.00	84.286
215.21	172.222
215.43	80.000
215.64	3200.000
215.86	166.667
216.07	215.385
216.28	160.000
216.50	69.231
216.71	-440.000
216.93	-135.294
217.14	80.952
217.35	73.438
217.57	133.333
217.78	52.941
218.00	866.667
218.21	83.019
218.42	-66.667
218.64	1600.000
218.85	-250.000
219.07	133.333
219.28	18.519
219.49	-66.667
219.71	91.111
219.92	53.846
220.14	117.391
220.35	-750.000
220.56	91.228
220.78	106.667
220.99	-33.333
221.21	0.000
221.42	110.345
221.63	-100.000
221.85	81.356
222.06	-10.204
222.28	44.828
222.49	-38.462
222.70	400.000
222.92	136.000
223.13	55.000
223.34	-208.333
223.56	58.442
223.77	74.468
223.99	116.667
224.20	0.000
224.41	72.727
224.63	26.667
224.84	103.448
225.05	49.206
225.27	60.870
225.48	-4.000
225.69	-33.333
225.91	43.210
226.12	-1.408
226.34	29.126
226.55	30.435
226.76	-8.772
226.98	11.842
227.19	72.581
227.40	3.125
227.62	20.000
227.83	38.514
228.04	25.773
228.26	7.438
228.47	47.561
228.69	40.237
228.90	21.176
229.11	22.594
229.33	21.008
229.54	-1.060
229.75	18.657
229.97	8.108
230.18	-1.662
230.39	-1.515
230.61	0.623
230.82	17.160
231.03	-0.613
231.25	4.181
231.46	10.680
231.67	18.182
231.89	19.630
232.10	3.731
232.31	1.271
232.53	-2.137
232.74	14.583
232.95	-0.493
233.17	2.344
233.38	-0.552
233.59	10.769
233.81	4.000
234.02	18.571
234.23	-0.459
234.45	11.230
234.66	4.206
234.87	19.635
235.09	29.146
235.30	-11.220
235.51	13.362
235.73	15.769
235.94	-2.985
236.15	14.458
236.36	22.305
236.58	12.230
236.79	5.426
237.00	26.502
237.22	10.458
237.43	-7.965
237.64	0.442
237.86	19.027
238.07	30.634
238.28	28.111
238.50	26.354
238.71	-0.546
238.92	3.833
239.13	23.904
239.35	20.702
239.56	7.983
239.77	9.470
239.99	23.333
240.20	11.047
240.41	4.386
240.63	14.497
240.84	15.774
241.05	10.876
241.26	-3.429
241.48	2.885
241.69	7.710
241.90	-1.425
242.12	8.421
242.33	-1.449
242.54	-2.801
242.75	6.205
242.97	3.994
243.18	6.861
243.39	5.977
243.61	4.383
243.82	6.100
244.03	9.029
244.24	4.224
244.46	6.878
244.67	7.831
244.88	5.413
245.09	0.562
245.31	4.348
245.52	8.204
245.73	4.874
245.95	11.111
246.16	13.551
246.37	6.571
246.58	5.397
246.80	7.798
247.01	3.409
247.22	-1.134
247.43	-2.144
247.65	2.961
247.86	5.194
248.07	3.322
248.28	1.762
248.50	5.587
248.71	2.506
248.92	0.650
249.13	4.213
249.35	3.833
249.56	3.679
249.77	4.111
249.98	4.441
250.20	-0.497
250.41	6.673
250.62	3.291
250.83	1.609
251.05	5.464
251.26	3.511
251.47	10.667
251.68	-3.125
251.90	4.755
252.11	7.541
252.32	7.727
252.53	7.783
252.75	11.126
252.96	5.636
253.17	-1.687
253.38	3.686
253.59	2.715
253.81	-3.213
254.02	0.829
254.23	2.639
254.44	7.557
254.66	3.922
254.87	1.370
255.08	7.177
255.29	7.678
255.50	8.550
255.72	2.756
255.93	12.454
256.14	-3.125
256.35	10.763
256.57	7.430
256.78	1.279
256.99	5.472
257.20	13.412
257.41	4.873
257.63	-2.136
257.84	8.377
258.05	5.581
258.26	7.764
258.47	0.805
258.69	-1.669
258.90	-4.617
259.11	7.963
259.32	4.575
259.53	2.724
259.75	2.195
259.96	0.081
260.17	0.950
260.38	3.520
260.59	4.655
260.81	2.376
261.02	4.029
261.23	2.192
261.44	2.817
261.65	0.747
261.87	0.579
262.08	-0.953
262.29	1.355
262.50	1.825
262.71	4.628
262.92	3.221
263.14	-0.491
263.35	4.619
263.56	-0.210
263.77	0.000
263.98	1.505
264.20	4.804
264.41	1.065
264.62	3.937
264.83	5.049
265.04	2.270
265.25	1.511
265.47	5.601
265.68	5.685
265.89	1.009
266.10	3.129
266.31	3.137
266.52	5.945
266.74	3.325
266.95	-0.444
267.16	7.521
267.37	-1.771
267.58	0.860
267.79	-0.368
268.01	1.013
268.22	3.923
268.43	0.526
268.64	0.805
268.85	0.733
269.06	3.852
269.27	1.990
269.49	3.506
269.70	2.055
269.91	1.502
270.12	2.904
270.33	1.610
270.54	3.000
270.75	4.843
270.97	2.636
271.18	5.857
271.39	0.330
271.60	0.582
271.81	0.801
272.02	1.054
272.23	3.280
272.45	3.966
272.66	3.594
272.87	3.771
273.08	1.076
273.29	0.137
273.50	2.093
273.71	0.586
273.92	-3.068
274.14	0.203
274.35	0.569
274.56	2.121
274.77	3.331
274.98	1.674
275.19	1.106
275.40	1.400
275.61	0.000
275.83	0.975
276.04	2.798
276.25	6.688
276.46	1.847
276.67	7.120
276.88	2.675
277.09	3.231
277.30	3.028
277.51	4.361
277.73	5.431
277.94	3.015
278.15	-1.079
278.36	4.790
278.57	-1.956
278.78	0.335
278.99	2.271
279.20	3.512
279.41	3.072
279.62	-1.570
279.84	1.766
280.05	4.125
280.26	5.272
280.47	0.251
280.68	9.040
280.89	3.639
281.10	3.260
281.31	1.784
281.52	4.766
281.73	3.196
281.94	0.781
282.16	1.768
282.37	4.260
282.58	1.773
282.79	2.076
283.00	3.706
283.21	3.360
283.42	2.539
283.63	3.416
283.84	4.092
284.05	4.653
284.26	2.020
284.47	0.706
284.68	3.794
284.89	3.574
285.11	0.741
285.32	1.121
285.53	2.159
285.74	0.800
285.95	1.655
286.16	1.004
286.37	2.444
286.58	0.786
286.79	0.247
287.00	1.844
287.21	0.099
287.42	0.049
287.63	-0.872
287.84	1.782
288.05	4.637
288.26	1.437
288.48	4.698
288.69	1.289
288.90	2.249
289.11	1.351
289.32	2.811
289.53	0.896
289.74	2.046
289.95	-0.839
290.16	-1.010
290.37	3.914
290.58	2.943
290.79	1.088
291.00	-0.169
291.21	0.000
291.42	1.911
291.63	3.418
291.84	2.449
292.05	-0.432
292.26	-0.379
292.47	0.052
292.68	2.890
292.89	1.503
293.10	2.907
293.31	3.998
293.52	5.976
293.73	2.013
293.94	-1.031
294.15	2.221
294.36	1.626
294.57	4.843
294.79	3.637
295.00	0.368
295.21	2.295
295.42	1.672
295.63	1.791
295.84	1.480
296.05	3.789
296.26	2.392
296.47	-0.205
296.68	-0.152
296.89	-0.447
297.10	2.273
297.31	1.684
297.52	1.352
297.73	1.832
297.94	1.334
298.15	2.113
298.36	0.235
298.57	0.497
298.78	2.669
298.99	2.274
299.20	2.061
299.41	1.661
299.62	0.471
299.83	1.538
300.04	1.155
300.25	0.483
300.46	0.846
300.67	2.005
300.88	2.100
301.09	0.327
301.30	2.236
301.50	0.106
301.71	2.393
301.92	4.110
302.13	1.484
302.34	1.791
302.55	0.854
302.76	0.813
302.97	-1.398
303.18	2.546
303.39	3.679
303.60	0.540
303.81	1.154
304.02	0.339
304.23	0.793
304.44	0.975
304.65	2.875
304.86	4.540
305.07	2.887
305.28	1.746
305.49	3.226
305.70	1.383
305.91	1.997
306.12	2.552
306.33	3.006
306.54	3.204
306.75	4.383
306.96	1.595
307.17	0.706
307.38	1.493
307.58	2.467
307.79	1.639
308.00	2.078
308.21	2.938
308.42	1.764
308.63	2.685
308.84	0.980
309.05	3.975
309.26	1.701
309.47	2.500
309.68	2.574
309.89	2.047
310.10	1.358
310.31	2.314
310.52	1.340
310.73	2.843
310.94	-1.381
311.14	1.964
311.35	-0.047
311.56	3.552
311.77	2.611
311.98	0.694
312.19	2.421
312.40	1.065
312.61	2.211
312.82	-0.177
313.03	1.499
313.24	0.630
313.45	2.391
313.66	0.601
313.86	0.440
314.07	4.380
314.28	1.892
314.49	1.580
314.70	0.654
314.91	1.459
315.12	1.428
315.33	1.724
315.54	1.693
315.75	1.720
315.96	-0.338
316.16	3.103
316.37	5.073
316.58	0.696
316.79	2.560
317.00	0.694
317.21	2.834
317.42	3.518
317.63	2.268
317.84	-0.450
318.05	0.950
318.25	1.395
318.46	2.489
318.67	1.925
318.88	0.801
319.09	0.951
319.30	1.142
319.51	1.654
319.72	2.072
319.93	2.136
320.13	2.126
320.34	2.513
320.55	2.587
320.76	5.176
320.97	1.343
321.18	2.165
321.39	2.103
321.60	2.559
321.80	-0.062
322.01	3.397
322.22	0.615
322.43	2.309
322.64	3.349
322.85	1.545
323.06	2.783
323.27	2.161
323.47	5.137
323.68	1.705
323.89	-0.911
324.10	1.541
324.31	1.378
324.52	3.133
324.73	2.763
324.93	1.345
325.14	4.063
325.35	2.493
325.56	3.253
325.77	3.876
325.98	2.630
326.19	-0.754
326.39	1.394
326.60	4.977
326.81	0.402
327.02	0.489
327.23	0.630
327.44	0.951
327.64	2.318
327.85	2.299
328.06	2.922
328.27	3.320
328.48	2.730
328.69	1.356
328.90	1.550
329.10	-0.968
329.31	2.326
329.52	4.482
329.73	2.381
329.94	0.974
330.15	3.294
330.35	2.034
330.56	1.800
330.77	1.012
330.98	3.400
331.19	1.935
331.39	0.053
331.60	1.598
331.81	2.091
332.02	0.483
332.23	1.264
332.44	0.322
332.64	1.495
332.85	3.596
333.06	2.144
333.27	3.323
333.48	2.803
333.68	3.538
333.89	1.477
334.10	-0.987
334.31	4.325
334.52	-0.618
334.72	2.828
334.93	2.692
335.14	3.894
335.35	2.324
335.56	0.643
335.76	0.102
335.97	1.671
336.18	2.857
336.39	1.913
336.60	3.974
336.80	1.998
337.01	-0.337
337.22	3.255
337.43	2.393
337.64	0.847
337.84	2.747
338.05	3.044
338.26	3.653
338.47	4.714
338.68	2.769
338.88	3.480
339.09	2.321
339.30	2.715
339.51	1.770
339.71	1.754
339.92	2.908
340.13	2.947
340.34	2.818
340.55	1.884
340.75	4.430
340.96	0.393
341.17	3.354
341.38	2.117
341.58	3.628
341.79	0.615
342.00	2.894
342.21	3.575
342.41	1.304
342.62	1.930
342.83	2.005
343.04	0.765
343.24	5.064
343.45	4.254
343.66	3.625
343.87	3.168
344.07	2.586
344.28	1.537
344.49	2.235
344.70	4.146
344.90	2.844
345.11	1.899
345.32	2.428
345.53	1.964
345.73	4.170
345.94	3.569
346.15	2.331
346.36	3.365
346.56	3.606
346.77	4.061
346.98	6.174
347.19	4.162
347.39	2.498
347.60	2.469
347.81	3.402
348.02	4.093
348.22	1.193
348.43	2.249
348.64	0.799
348.84	3.952
349.05	1.830
349.26	5.723
349.47	3.736
349.67	3.129
349.88	3.487
350.09	1.927
350.30	5.403
350.50	4.380
350.71	0.761
350.92	3.751
351.12	4.377
351.33	3.570
351.54	3.794
351.74	3.928
351.95	2.615
352.16	3.764
352.37	5.544
352.57	2.942
352.78	4.666
352.99	3.520
353.19	3.519
353.40	2.448
353.61	4.453
353.82	6.586
354.02	2.623
354.23	2.041
354.44	4.580
354.64	2.386
354.85	2.675
355.06	3.728
355.26	1.815
355.47	3.326
355.68	4.306
355.88	5.206
356.09	4.860
356.30	2.919
356.51	3.769
356.71	2.965
356.92	3.020
357.13	4.171
357.33	6.596
357.54	4.351
357.75	1.082
357.95	4.476
358.16	3.947
358.37	5.859
358.57	3.521
358.78	6.306
358.99	3.373
359.19	4.849
359.40	4.361
359.61	3.112
359.81	6.141
360.02	6.629
360.23	3.639
360.43	3.371
360.64	3.614
360.85	3.399
361.05	1.925
361.26	6.215
361.47	4.582
361.67	5.863
361.88	3.308
362.09	4.582
362.29	3.075
362.50	3.020
362.70	1.474
362.91	6.708
363.12	4.294
363.32	4.468
363.53	5.062
363.74	5.908
363.94	3.434
364.15	6.437
364.36	3.868
364.56	4.004
364.77	4.875
364.98	6.230
365.18	4.282
365.39	5.118
365.59	2.156
365.80	3.120
366.01	4.797
366.21	3.129
366.42	3.893
366.63	5.481
366.83	4.426
367.04	2.789
367.24	4.234
367.45	3.360
367.66	3.154
367.86	5.824
368.07	5.003
368.28	2.856
368.48	3.021
368.69	2.652
368.89	3.656
369.10	3.944
369.31	3.275
369.51	3.302
369.72	5.625
369.92	4.976
370.13	3.319
370.34	5.380
370.54	1.276
370.75	5.210
370.95	4.134
371.16	3.030
371.37	2.699
371.57	2.725
371.78	2.268
371.98	4.151
372.19	4.666
372.40	4.163
372.60	2.910
372.81	4.231
373.01	2.719
373.22	3.570
373.43	4.364
373.63	4.300
373.84	3.750
374.04	3.473
374.25	4.787
374.46	4.272
374.66	4.464
374.87	4.176
375.07	1.419
375.28	2.472
375.48	3.820
375.69	5.136
375.90	1.927
376.10	2.601
376.31	1.774
376.51	2.707
376.72	2.966
376.92	2.528
377.13	3.433
377.34	4.912
377.54	3.158
377.75	4.337
377.95	2.774
378.16	5.057
378.36	4.063
378.57	4.538
378.77	4.330
378.98	4.076
379.19	2.847
379.39	2.836
379.60	3.131
379.80	4.125
380.01	4.093
380.21	2.871
380.42	4.261
380.62	3.309
380.83	4.245
381.04	2.907
381.24	4.218
381.45	4.011
381.65	1.998
381.86	4.135
382.06	3.686
382.27	2.050
382.47	1.882
382.68	4.555
382.88	1.782
383.09	2.518
383.29	1.802
383.50	5.094
383.71	3.566
383.91	2.964
384.12	2.037
384.32	3.913
384.53	2.681
384.73	1.492
384.94	2.287
385.14	2.409
385.35	2.272
385.55	2.466
385.76	1.238
385.96	1.323
386.17	4.232
386.37	3.591
386.58	3.683
386.78	3.768
386.99	1.643
387.19	2.822
387.40	1.778
387.60	3.762
387.81	2.533
388.01	1.900
388.22	2.965
388.42	4.998
388.63	2.505
388.83	4.518
389.04	1.124
389.24	2.558
389.45	2.083
389.65	2.998
389.86	1.735
390.06	1.939
390.27	2.054
390.47	3.166
390.68	2.122
390.88	3.306
391.09	3.461
391.29	4.644
391.50	1.549
391.70	2.821
391.91	1.983
392.11	2.382
392.32	3.057
392.52	3.729
392.73	2.361
392.93	2.636
393.14	2.082
393.34	1.693
393.55	2.398
393.75	3.418
393.95	2.665
394.16	3.111
394.36	3.149
394.57	4.329
394.77	2.049
394.98	2.443
395.18	3.351
395.39	2.564
395.59	3.425
395.80	2.563
396.00	3.184
396.21	2.826
396.41	3.109
396.61	3.793
396.82	2.783
397.02	3.348
397.23	3.876
397.43	2.601
397.64	1.035
397.84	4.518
398.05	1.761
398.25	2.730
398.45	2.334
398.66	3.747
398.86	3.458
399.07	4.174
399.27	1.727
399.48	3.478
399.68	2.712
399.89	2.615
400.09	3.538
400.29	1.007
400.50	2.769
400.70	3.613
400.91	3.302
401.11	2.438
401.32	2.938
401.52	1.873
401.72	2.727
401.93	5.113
402.13	3.053
402.34	1.975
402.54	2.104
402.75	5.125
402.95	2.740
403.15	4.443
403.36	2.785
403.56	2.909
403.77	3.090
403.97	3.158
404.17	2.896
404.38	3.725
404.58	1.726
404.79	3.223
404.99	2.787
405.19	2.386
405.40	2.625
405.60	3.168
405.81	2.225
406.01	3.008
406.21	2.586
406.42	2.772
406.62	3.298
406.83	2.743
407.03	3.946
407.23	1.423
407.44	2.435
407.64	2.805
407.85	2.611
408.05	3.293
408.25	2.135
408.46	3.790
408.66	2.340
408.87	1.984
409.07	2.191
409.27	1.745
409.48	2.397
409.68	2.616
409.88	2.619
410.09	2.315
410.29	2.745
410.50	3.160
410.70	2.427
410.90	2.734
411.11	2.518
411.31	2.857
411.51	2.544
411.72	3.763
411.92	2.002
412.12	2.024
412.33	2.586
412.53	1.725
412.74	0.079
412.94	1.916
413.14	1.629
413.35	1.866
413.55	2.202
413.75	3.450
413.96	1.449
414.16	2.859
414.36	2.306
414.57	3.030
414.77	2.194
414.97	2.966
415.18	2.019
415.38	1.347
415.58	2.193
415.79	2.084
415.99	2.666
416.19	2.636
416.40	2.784
416.60	1.112
416.80	2.167
417.01	2.049
417.21	2.062
417.41	3.986
417.62	2.971
417.82	3.186
418.02	1.728
418.23	4.026
418.43	2.270
418.63	2.941
418.84	3.305
419.04	2.308
419.24	3.335
419.45	4.260
419.65	4.075
419.85	3.756
420.06	3.526
420.26	4.234
420.46	3.592
420.67	4.742
420.87	3.885
421.07	5.222
421.28	3.575
421.48	4.840
421.68	4.067
421.88	5.012
422.09	4.468
422.29	4.096
422.49	3.118
422.70	4.397
422.90	4.462
423.10	4.331
423.31	3.777
423.51	4.863
423.71	2.791
423.91	4.495
424.12	3.727
424.32	4.600
424.52	4.381
424.73	4.347
424.93	4.253
425.13	4.272
425.33	3.636
425.54	4.900
425.74	3.581
425.94	5.211
426.15	4.005
426.35	3.314
426.55	4.027
426.75	4.176
426.96	3.490
427.16	3.391
427.36	3.631
427.57	3.779
427.77	2.931
427.97	3.266
428.17	3.594
428.38	3.585
428.58	1.835
428.78	3.187
428.98	1.535
429.19	2.607
429.39	1.489
429.59	2.921
429.79	1.848
430.00	2.347
430.20	2.510
430.40	2.578
430.60	2.041
430.81	2.743
431.01	1.859
431.21	2.233
431.41	2.145
431.62	2.902
431.82	2.229
432.02	3.274
432.22	1.949
432.43	1.767
432.63	1.808
432.83	3.129
433.03	1.984
433.24	2.143
433.44	2.688
433.64	2.759
433.84	2.770
434.05	3.509
434.25	2.799
434.45	3.911
434.65	3.470
434.85	3.842
435.06	3.547
435.26	3.064
435.46	3.401
435.66	3.444
435.87	2.363
436.07	2.670
436.27	3.232
436.47	3.121
436.67	1.434
436.88	3.185
437.08	2.921
437.28	3.174
437.48	2.397
437.69	4.150
437.89	3.036
438.09	3.938
438.29	2.525
438.49	3.144
438.70	3.128
438.90	2.461
439.10	2.721
439.30	3.337
439.50	2.165
439.71	3.569
439.91	2.682
440.11	4.002
440.31	3.291
440.51	3.143
440.72	2.787
440.92	4.234
441.12	3.309
441.32	4.640
441.52	3.738
441.72	4.422
441.93	3.959
442.13	4.211
442.33	3.097
442.53	4.828
442.73	2.241
442.94	3.865
443.14	2.939
443.34	4.774
443.54	3.726
443.74	3.782
443.94	2.688
444.15	2.840
444.35	2.115
444.55	4.363
444.75	2.713
444.95	4.030
445.15	3.547
445.36	3.731
445.56	2.219
445.76	4.080
445.96	3.644
446.16	2.897
446.36	2.797
446.57	4.592
446.77	2.701
446.97	4.062
447.17	4.747
447.37	4.415
447.57	4.318
447.77	4.553
447.98	3.694
448.18	4.964
448.38	3.258
448.58	4.270
448.78	4.096
448.98	4.219
449.18	2.666
449.39	3.398
449.59	2.733
449.79	3.041
449.99	2.381
450.19	3.350
450.39	3.219
450.59	3.365
450.79	2.681
451.00	3.723
451.20	3.209
451.40	2.658
451.60	2.237
451.80	3.495
452.00	2.581
452.20	2.680
452.40	2.747
452.61	3.094
452.81	2.015
453.01	3.861
453.21	2.767
453.41	3.644
453.61	2.610
453.81	2.647
454.01	2.837
454.21	3.261
454.42	2.774
454.62	3.111
454.82	2.452
455.02	2.356
455.22	1.438
455.42	2.519
455.62	1.593
455.82	2.897
456.02	2.414
456.23	2.525
456.43	2.701
456.63	2.500
456.83	1.549
457.03	3.488
457.23	2.245
457.43	2.467
457.63	2.366
457.83	2.509
458.03	1.840
458.23	2.671
458.43	1.586
458.64	3.129
458.84	2.329
459.04	2.850
459.24	3.483
459.44	2.870
459.64	3.213
459.84	3.617
460.04	3.296
460.24	3.834
460.44	3.585
460.64	4.568
460.84	3.199
461.04	4.824
461.24	4.325
461.45	5.084
461.65	4.408
461.85	4.687
462.05	3.869
462.25	4.026
462.45	4.434
462.65	3.874
462.85	1.871
463.05	3.119
463.25	1.712
463.45	3.593
463.65	2.313
463.85	3.280
464.05	2.770
464.25	2.391
464.45	2.888
464.65	1.953
464.85	2.249
465.05	2.054
465.26	2.886
465.46	3.441
465.66	3.267
465.86	3.045
466.06	2.611
466.26	3.360
466.46	2.449
466.66	2.914
466.86	2.625
467.06	2.919
467.26	2.654
467.46	2.806
467.66	2.840
467.86	2.688
468.06	2.864
468.26	2.254
468.46	2.772
468.66	2.584
468.86	1.834
469.06	3.731
469.26	2.205
469.46	2.258
469.66	2.327
469.86	3.567
470.06	1.978
470.26	3.101
470.46	2.254
470.66	3.830
470.86	2.274
471.06	2.824
471.26	1.913
471.46	2.016
471.66	2.230
471.86	2.687
472.06	2.050
472.26	3.751
472.46	3.239
472.66	2.611
472.86	2.159
473.06	2.942
473.26	1.890
473.46	2.436
473.66	2.498
473.86	3.044
474.06	2.173
474.26	3.087
474.46	2.293
474.66	3.149
474.86	2.951
475.06	3.139
475.26	1.710
475.46	3.864
475.66	1.825
475.86	2.377
476.06	3.777
476.26	3.718
476.46	2.358
476.66	3.164
476.86	1.535
477.06	2.509
477.26	2.494
477.46	2.643
477.65	2.949
477.85	3.639
478.05	1.798
478.25	4.027
478.45	2.039
478.65	2.950
478.85	2.229
479.05	3.301
479.25	2.788
479.45	3.517
479.65	2.096
479.85	3.039
480.05	2.667
480.25	3.438
480.45	3.418
480.65	3.937
480.85	2.466
481.05	4.432
481.25	3.829
481.44	3.943
481.64	2.392
481.84	4.840
482.04	4.047
482.24	4.513
482.44	2.926
482.64	3.975
482.84	4.244
483.04	5.296
483.24	4.805
483.44	5.573
483.64	5.656
483.84	6.155
484.04	5.935
484.23	6.236
484.43	6.432
484.63	7.104
484.83	7.053
485.03	7.397
485.23	7.157
485.43	7.385
485.63	7.017
485.83	6.667
486.03	6.045
486.23	6.261
486.42	6.080
486.62	6.301
486.82	5.679
487.02	6.414
487.22	5.567
487.42	6.382
487.62	6.200
487.82	6.018
488.02	6.284
488.22	6.270
488.41	6.056
488.61	6.245
488.81	6.068
489.01	6.461
489.21	6.358
489.41	6.571
489.61	6.023
489.81	6.632
490.01	6.139
490.20	6.193
490.40	5.612
490.60	6.027
490.80	5.318
491.00	6.196
491.20	5.117
491.40	5.789
491.60	5.100
491.79	6.002
491.99	5.815
492.19	6.115
492.39	6.177
492.59	6.411
492.79	6.031
492.99	6.092
493.19	6.117
493.38	6.239
493.58	5.656
493.78	6.150
493.98	5.676
494.18	5.985
494.38	4.930
494.58	5.356
494.77	3.600
494.97	5.102
495.17	3.226
495.37	4.447
495.57	3.940
495.77	4.692
495.96	4.220
496.16	3.789
496.36	3.911
496.56	5.101
496.76	3.360
496.96	4.363
497.15	3.826
497.35	5.007
497.55	4.024
497.75	4.658
497.95	3.758
498.15	5.063
498.34	4.334
498.54	4.664
498.74	4.472
498.94	5.239
499.14	3.552
499.34	5.448
499.53	3.917
499.73	5.006
499.93	3.321
500.13	4.264
500.33	3.384
500.52	4.014
500.72	4.292
500.92	3.832
501.12	3.068
501.32	4.078
501.52	3.791
501.71	4.100
501.91	3.011
502.11	3.402
502.31	3.414
502.51	3.919
502.70	3.282
502.90	4.330
503.10	2.786
503.30	4.618
503.50	3.860
503.69	4.301
503.89	3.832
504.09	4.101
504.29	3.728
504.48	4.375
504.68	3.958
504.88	5.029
505.08	2.742
505.28	3.997
505.47	3.370
505.67	5.516
505.87	3.220
506.07	3.677
506.27	3.329
506.46	4.238
506.66	3.013
506.86	3.061
507.06	4.583
507.25	4.003
507.45	3.923
507.65	4.983
507.85	3.141
508.04	4.712
508.24	4.408
508.44	5.197
508.64	3.668
508.83	4.821
509.03	3.733
509.23	5.030
509.43	4.017
509.63	4.539
509.82	3.885
510.02	4.639
510.22	4.273
510.42	5.909
510.61	4.671
510.81	4.696
511.01	5.023
511.21	5.315
511.40	3.958
511.60	5.172
511.80	4.413
511.99	5.665
512.19	4.058
512.39	5.575
512.59	4.395
512.78	5.897
512.98	5.464
513.18	5.142
513.38	4.819
513.57	5.689
513.77	4.222
513.97	5.549
514.17	4.145
514.36	4.688
514.56	4.915
514.76	5.416
514.95	3.936
515.15	4.088
515.35	3.201
515.55	4.668
515.74	4.883
515.94	5.908
516.14	3.921
516.33	5.020
516.53	3.624
516.73	4.502
516.93	3.598
517.12	5.351
517.32	3.678
517.52	5.318
517.71	4.374
517.91	4.766
518.11	5.013
518.30	5.299
518.50	4.681
518.70	5.895
518.90	5.192
519.09	6.648
519.29	5.988
519.49	6.467
519.68	5.250
519.88	6.687
520.08	5.873
520.27	6.237
520.47	5.650
520.67	6.201
520.86	6.489
521.06	6.601
521.26	4.605
521.45	5.851
521.65	4.778
521.85	5.569
522.04	4.466
522.24	5.716
522.44	4.486
522.63	5.873
522.83	4.429
523.03	4.975
523.22	4.481
523.42	6.004
523.62	5.336
523.81	5.605
524.01	5.072
524.21	4.941
524.40	4.479
524.60	5.503
524.80	4.539
524.99	5.682
525.19	5.014
525.39	5.978
525.58	4.596
525.78	6.338
525.98	5.611
526.17	6.876
526.37	5.902
526.57	6.836
526.76	6.547
526.96	7.095
527.15	5.742
527.35	6.787
527.55	6.238
527.74	7.229
527.94	6.953
528.14	7.207
528.33	6.630
528.53	7.669
528.72	7.262
528.92	7.371
529.12	7.456
529.31	7.657
529.51	7.580
529.71	7.642
529.90	7.711
530.10	7.772
530.29	7.739
530.49	7.617
530.69	7.174
530.88	7.528
531.08	7.490
531.28	7.809
531.47	7.163
531.67	7.435
531.86	6.653
532.06	7.136
532.26	6.349
532.45	7.172
532.65	6.341
532.84	7.143
533.04	6.959
533.24	7.401
533.43	6.952
533.63	7.371
533.82	6.971
534.02	7.213
534.22	7.061
534.41	7.756
534.61	7.230
534.80	7.509
535.00	7.179
535.19	7.591
535.39	7.081
535.59	7.307
535.78	6.828
535.98	7.169
536.17	6.432
536.37	6.922
536.57	6.004
536.76	7.332
536.96	6.751
537.15	7.413
537.35	6.472
537.54	7.097
537.74	6.397
537.93	7.662
538.13	6.365
538.33	7.073
538.52	6.536
538.72	7.290
538.91	6.176
539.11	6.933
539.30	5.561
539.50	6.613
539.70	6.573
539.89	7.245
540.09	6.099
540.28	6.627
540.48	5.340
540.67	6.601
540.87	6.703
541.06	7.476
541.26	6.571
541.45	7.669
541.65	7.483
541.85	8.027
542.04	7.792
542.24	7.982
542.43	7.703
542.63	7.815
542.82	7.663
543.02	8.000
543.21	7.416
543.41	8.050
543.60	7.575
543.80	7.770
543.99	7.265
544.19	7.725
544.38	6.858
544.58	8.024
544.77	7.242
544.97	7.676
545.16	5.988
545.36	7.402
545.56	6.354
545.75	7.526
545.95	6.124
546.14	7.609
546.34	6.451
546.53	7.833
546.73	6.678
546.92	7.440
547.12	6.508
547.31	7.246
547.51	6.186
547.70	7.913
547.90	5.708
548.09	7.385
548.29	6.125
548.48	7.576
548.68	6.622
548.87	6.904
549.07	6.615
549.26	6.225
549.46	6.231
549.65	6.478
549.84	5.456
550.04	5.768
550.23	5.194
550.43	5.536
550.62	5.456
550.82	5.823
551.01	4.408
551.21	5.776
551.40	4.766
551.60	5.750
551.79	4.678
551.99	5.766
552.18	4.999
552.38	6.334
552.57	5.561
552.77	5.605
552.96	5.650
553.16	7.020
553.35	5.913
553.54	7.710
553.74	6.365
553.93	6.403
554.13	6.242
554.32	7.371
554.52	4.916
554.71	6.982
554.91	5.869
555.10	6.681
555.29	5.018
555.49	5.926
555.68	4.077
555.88	6.905
556.07	4.530
556.27	6.994
556.46	5.828
556.66	5.725
556.85	4.401
557.04	6.167
557.24	4.941
557.43	7.461
557.63	5.671
557.82	5.421
558.02	4.459
558.21	6.635
558.40	4.116
558.60	6.588
558.79	5.271
558.99	6.223
559.18	5.359
559.38	6.210
559.57	5.296
559.76	5.639
559.96	5.863
560.15	6.149
560.35	4.622
560.54	5.503
560.73	4.626
560.93	6.649
561.12	6.016
561.32	6.163
561.51	6.151
561.70	6.444
561.90	5.496
562.09	7.399
562.29	6.148
562.48	7.322
562.67	6.434
562.87	7.139
563.06	6.326
563.26	5.956
563.45	6.123
563.64	7.921
563.84	6.780
564.03	7.770
564.23	6.543
564.42	8.659
564.61	6.516
564.81	7.116
565.00	7.832
565.20	9.009
565.39	8.812
565.58	7.753
565.78	6.173
565.97	8.897
566.16	8.155
566.36	10.280
566.55	8.663
566.74	9.180
566.94	7.195
567.13	9.420
567.33	7.792
567.52	8.785
567.71	8.226
567.91	9.409
568.10	8.643
568.29	9.503
568.49	8.300
568.68	9.568
568.87	6.947
569.07	9.040
569.26	8.385
569.45	9.230
569.65	7.735
569.84	9.485
570.04	7.800
570.23	9.264
570.42	6.175
570.62	8.615
570.81	8.139
571.00	9.619
571.20	8.514
571.39	10.182
571.58	8.887
571.78	10.218
571.97	9.068
572.16	9.804
572.36	9.154
572.55	10.656
572.74	9.394
572.94	9.830
573.13	10.081
573.32	10.667
573.51	8.897
573.71	10.673
573.90	7.853
574.09	10.570
574.29	9.701
574.48	10.575
574.67	8.506
574.87	10.476
575.06	8.086
575.25	10.921
575.45	8.754
575.64	9.992
575.83	8.938
576.03	10.210
576.22	9.074
576.41	9.456
576.60	8.692
576.80	9.376
576.99	9.435
577.18	10.402
577.38	7.836
577.57	9.436
577.76	9.207
577.95	9.170
578.15	8.199
578.34	9.625
578.53	7.274
578.73	9.174
578.92	6.726
579.11	8.228
579.30	7.993
579.50	8.182
579.69	8.317
579.88	8.242
580.08	5.940
580.27	9.042
580.46	7.998
580.65	8.466
580.85	6.813
581.04	7.649
581.23	6.624
581.42	9.178
581.62	6.895
581.81	7.479
582.00	6.891
582.19	6.885
582.39	8.078
582.58	6.669
582.77	7.706
582.96	6.190
583.16	6.308
583.35	8.191
583.54	7.128
583.73	7.530
583.93	6.672
584.12	7.169
584.31	5.040
584.50	7.351
584.70	6.945
584.89	7.719
585.08	6.340
585.27	7.868
585.47	6.394
585.66	7.106
585.85	5.238
586.04	6.733
586.24	6.205
586.43	6.593
586.62	5.821
586.81	8.318
587.00	5.771
587.20	7.335
587.39	5.033
587.58	7.833
587.77	6.190
587.97	6.201
588.16	6.236
588.35	9.008
588.54	5.317
588.73	6.907
588.93	7.050
589.12	6.944
589.31	6.172
589.50	6.541
589.69	6.591
589.89	7.706
590.08	6.459
590.27	6.395
590.46	6.370
590.65	6.761
590.85	5.237
591.04	8.035
591.23	6.567
591.42	8.537
591.61	6.305
591.81	7.142
592.00	5.767
592.19	7.416
592.38	5.250
592.57	7.858
592.77	6.785
592.96	6.113
593.15	8.230
593.34	7.175
593.53	5.911
593.72	6.240
593.92	6.983
594.11	8.627
594.30	5.582
594.49	8.009
594.68	7.668
594.87	7.953
595.07	5.457
595.26	8.087
595.45	5.589
595.64	8.687
595.83	5.911
596.02	8.451
596.22	6.479
596.41	8.018
596.60	7.719
596.79	9.396
596.98	7.528
597.17	9.296
597.37	7.719
597.56	8.879
597.75	7.399
597.94	9.955
598.13	8.951
598.32	8.465
598.51	7.347
598.71	9.882
598.90	7.418
599.09	8.379
599.28	5.441
599.47	7.149
599.66	6.695
599.85	7.909
600.05	5.975
600.24	7.884
600.43	7.018
600.62	6.220
600.81	8.209
601.00	6.990
601.19	5.467
601.38	7.655
601.58	6.248
601.77	5.876
601.96	6.496
602.15	7.315
602.34	6.910
602.53	9.752
602.72	5.227
602.91	7.697
603.10	6.094
603.30	8.203
603.49	6.953
603.68	8.730
603.87	5.890
604.06	8.509
604.25	8.796
604.44	9.562
604.63	8.095
604.82	9.295
605.01	8.163
605.21	9.974
605.40	8.468
605.59	9.966
605.78	9.457
605.97	10.192
606.16	7.931
606.35	10.523
606.54	7.341
606.73	10.872
606.92	6.283
607.11	9.697
607.30	6.923
607.50	7.770
607.69	7.356
607.88	8.409
608.07	5.940
608.26	7.213
608.45	7.443
608.64	9.528
608.83	5.113
609.02	8.110
609.21	8.274
609.40	9.958
609.59	6.776
609.78	7.811
609.97	7.234
610.16	8.816
610.35	8.366
610.55	8.370
610.74	7.554
610.93	9.064
611.12	7.992
611.31	8.363
611.50	5.581
611.69	7.156
611.88	7.756
612.07	8.429
612.26	6.437
612.45	6.506
612.64	6.920
612.83	7.544
613.02	5.149
613.21	5.488
613.40	5.166
613.59	6.310
613.78	4.187
613.97	7.200
614.16	6.648
614.35	6.966
614.54	4.240
614.73	5.197
614.92	5.657
615.11	4.935
615.30	3.889
615.49	3.683
615.68	4.380
615.87	5.070
616.07	4.469
616.26	4.062
616.45	4.531
616.64	5.596
616.83	5.000
617.02	6.625
617.21	3.248
617.40	4.770
617.59	5.199
617.78	6.499
617.97	4.375
618.16	3.427
618.35	2.099
618.54	4.259
618.73	4.275
618.92	5.736
619.11	3.246
619.30	4.547
619.49	3.313
619.68	5.354
619.86	3.346
620.05	4.956
620.24	3.990
620.43	4.051
620.62	3.653
620.81	4.934
621.00	4.846
621.19	6.162
621.38	5.416
621.57	5.202
621.76	4.898
621.95	5.321
622.14	4.194
622.33	6.127
622.52	2.904
622.71	4.568
622.90	4.274
623.09	4.455
623.28	3.974
623.47	5.301
623.66	3.944
623.85	4.380
624.04	4.455
624.23	4.236
624.42	3.907
624.61	3.971
624.80	3.306
624.99	4.021
625.18	3.276
625.36	4.468
625.55	3.988
625.74	3.500
625.93	3.458
626.12	4.929
626.31	6.199
626.50	5.716
626.69	4.393
626.88	7.286
627.07	5.871
627.26	5.312
627.45	5.452
627.64	5.985
627.83	5.918
628.02	5.600
628.20	4.316
628.39	5.129
628.58	3.494
628.77	5.544
628.96	4.480
629.15	4.245
629.34	4.737
629.53	4.460
629.72	3.282
629.91	6.748
630.10	4.113
630.29	4.020
630.47	3.835
630.66	3.758
630.85	4.842
631.04	5.175
631.23	4.527
631.42	4.367
631.61	4.018
631.80	6.839
631.99	4.608
632.18	4.025
632.36	2.448
632.55	4.894
632.74	2.384
632.93	4.320
633.12	3.244
633.31	3.699
633.50	4.033
633.69	4.821
633.88	2.698
634.06	4.642
634.25	3.638
634.44	3.751
634.63	4.112
634.82	5.730
635.01	2.920
635.20	4.887
635.39	3.115
635.57	4.066
635.76	3.690
635.95	4.692
636.14	3.501
636.33	5.857
636.52	2.817
636.71	3.420
636.89	4.425
637.08	2.639
637.27	4.399
637.46	4.311
637.65	3.545
637.84	4.168
638.03	1.889
638.21	4.773
638.40	3.324
638.59	3.923
638.78	3.002
638.97	4.284
639.16	4.332
639.34	3.515
639.53	2.469
639.72	4.627
639.91	1.888
640.10	1.641
640.29	4.052
640.47	4.538
640.66	3.541
640.85	5.243
641.04	2.909
641.23	3.075
641.42	3.970
641.60	1.880
641.79	2.873
641.98	2.155
642.17	4.187
642.36	4.071
642.54	3.422
642.73	2.169
642.92	1.557
643.11	3.312
643.30	3.262
643.49	3.314
643.67	1.705
643.86	3.463
644.05	3.578
644.24	4.091
644.43	2.482
644.61	3.598
644.80	3.125
644.99	4.913
645.18	4.134
645.37	3.864
645.55	3.688
645.74	3.805
645.93	4.292
646.12	4.031
646.31	2.920
646.49	3.393
646.68	4.554
646.87	3.446
647.06	2.485
647.24	3.935
647.43	2.846
647.62	4.777
647.81	1.989
648.00	3.601
648.18	2.906
648.37	2.837
648.56	3.121
648.75	3.517
648.93	3.045
649.12	2.922
649.31	2.860
649.50	2.760
649.68	2.114
649.87	3.933
650.06	2.781
650.25	4.276
650.43	0.996
650.62	2.275
650.81	3.263
651.00	1.425
651.18	1.826
651.37	4.123
651.56	2.164
651.75	3.501
651.93	2.247
652.12	4.768
652.31	2.060
652.50	2.718
652.68	4.889
652.87	4.216
653.06	4.396
653.25	4.347
653.43	3.836
653.62	3.188
653.81	1.687
654.00	4.459
654.18	1.245
654.37	2.863
654.56	3.373
654.74	0.977
654.93	3.762
655.12	2.117
655.31	1.887
655.49	2.927
655.68	2.923
655.87	2.394
656.05	1.456
656.24	2.397
656.43	2.010
656.62	3.465
656.80	4.506
656.99	2.360
657.18	0.817
657.36	2.925
657.55	2.621
657.74	3.318
657.93	2.926
658.11	5.758
658.30	2.897
658.49	3.040
658.67	2.783
658.86	1.319
659.05	2.077
659.23	3.768
659.42	2.267
659.61	4.071
659.79	2.562
659.98	2.521
660.17	2.713
660.35	2.939
660.54	3.672
660.73	3.689
660.91	4.166
661.10	3.212
661.29	2.893
661.47	2.977
661.66	2.590
661.85	2.769
662.03	4.605
662.22	1.809
662.41	2.505
662.59	2.360
662.78	3.008
662.97	3.122
663.15	1.756
663.34	1.768
663.53	1.709
663.71	1.126
663.90	1.168
664.09	2.285
664.27	1.279
664.46	1.848
664.65	2.754
664.83	1.984
665.02	2.888
665.21	2.144
665.39	0.971
665.58	2.106
665.77	2.284
665.95	2.326
666.14	1.073
666.32	1.189
666.51	1.661
666.70	1.318
666.88	2.599
667.07	1.666
667.26	-0.290
667.44	2.321
667.63	1.786
667.81	0.925
668.00	2.502
668.19	2.927
668.37	2.465
668.56	3.781
668.75	1.542
668.93	2.554
669.12	0.526
669.30	2.716
669.49	2.131
669.68	2.582
669.86	1.251
670.05	1.395
670.23	0.991
670.42	1.224
670.61	2.049
670.79	2.394
670.98	2.692
671.16	3.199
671.35	1.655
671.54	2.659
671.72	1.423
671.91	2.080
672.09	1.375
672.28	3.105
672.46	1.917
672.65	2.917
672.84	1.566
673.02	3.240
673.21	1.613
673.39	0.728
673.58	1.810
673.77	2.562
673.95	1.283
674.14	1.004
674.32	1.682
674.51	3.654
674.69	2.500
674.88	2.103
675.07	1.308
675.25	2.687
675.44	2.296
675.62	1.281
675.81	2.247
675.99	4.393
676.18	1.501
676.36	2.430
676.55	1.705
676.74	3.184
676.92	1.280
677.11	1.842
677.29	2.140
677.48	2.357
677.66	2.179
677.85	2.744
678.03	2.827
678.22	2.731
678.40	2.137
678.59	0.886
678.78	2.038
678.96	1.123
679.15	3.244
679.33	1.663
679.52	3.119
679.70	4.082
679.89	3.469
680.07	3.456
680.26	3.613
680.44	1.969
680.63	1.713
680.81	2.728
681.00	1.923
681.18	0.794
681.37	2.622
681.55	3.875
681.74	2.978
681.92	3.839
682.11	4.101
682.29	2.593
682.48	4.287
682.66	3.350
682.85	2.951
683.03	4.120
683.22	3.314
683.40	3.630
683.59	2.522
683.77	3.435
683.96	1.578
684.14	3.538
684.33	1.691
684.51	5.581
684.70	3.283
684.88	5.446
685.07	3.797
685.25	4.303
685.44	2.636
685.62	3.892
685.81	2.195
685.99	4.173
686.18	1.032
686.36	4.143
686.55	3.484
686.73	3.832
686.92	3.787
687.10	3.370
687.29	3.515
687.47	4.957
687.65	2.988
687.84	2.253
688.02	2.990
688.21	5.404
688.39	2.923
688.58	3.701
688.76	4.230
688.95	1.714
689.13	4.394
689.32	4.135
689.50	3.452
689.68	4.372
689.87	3.469
690.05	4.031
690.24	4.324
690.42	3.922
690.61	3.603
690.79	4.667
690.98	4.662
691.16	3.836
691.34	3.893
691.53	2.552
691.71	4.189
691.90	5.013
692.08	2.865
692.27	3.902
692.45	6.685
692.63	2.290
692.82	4.901
693.00	5.146
693.19	4.221
693.37	6.095
693.56	3.550
693.74	5.105
693.92	4.116
694.11	4.571
694.29	6.279
694.48	3.022
694.66	3.647
694.84	5.287
695.03	3.525
695.21	5.532
695.40	4.702
695.58	6.745
695.76	4.168
695.95	6.484
696.13	4.998
696.32	4.242
696.50	9.061
696.68	3.672
696.87	3.234
697.05	5.213
697.24	4.970
697.42	7.261
697.60	5.332
697.79	5.345
697.97	6.485
698.16	8.132
698.34	3.775
698.52	7.586
698.71	5.565
698.89	6.840
699.07	5.338
699.26	7.139
699.44	7.727
699.63	8.418
699.81	5.166
699.99	9.893
700.18	7.991
700.36	9.244
700.54	7.893
700.73	5.766
700.91	6.156
701.09	6.561
701.28	8.304
701.46	7.194
701.64	5.470
701.83	7.200
702.01	5.243
702.20	12.223
702.38	8.556
702.56	7.510
702.75	5.680
702.93	7.346
703.11	6.781
703.30	5.789
703.48	5.827
703.66	5.203
703.85	4.627
704.03	7.379
704.21	5.236
704.40	6.733
704.58	4.408
704.76	5.261
704.95	3.345
705.13	8.248
705.31	3.313
705.50	4.702
705.68	4.973
705.86	6.163
706.04	5.763
706.23	5.253
706.41	4.778
706.59	5.141
706.78	4.490
706.96	8.183
707.14	7.904
707.33	6.183
707.51	7.308
707.69	4.423
707.88	5.068
708.06	8.853
708.24	3.967
708.42	7.853
708.61	5.167
708.79	6.733
708.97	7.571
709.16	8.432
709.34	4.513
709.52	7.018
709.71	7.266
709.89	10.701
710.07	6.937
710.25	7.602
710.44	5.890
710.62	5.690
710.80	8.306
710.98	3.781
711.17	6.632
711.35	10.625
711.53	4.894
711.72	9.917
711.90	9.650
712.08	7.459
712.26	5.859
712.45	8.403
712.63	5.578
712.81	8.488
712.99	5.779
713.18	8.040
713.36	4.458
713.54	5.152
713.72	5.890
713.91	5.576
714.09	4.622
714.27	5.323
714.45	7.478
714.64	9.882
714.82	5.710
715.00	7.515
715.18	3.121
715.37	9.274
715.55	6.421
715.73	7.782
715.91	9.007
716.10	7.530
716.28	3.046
716.46	9.303
716.64	7.181
716.83	8.614
717.01	5.633
717.19	8.269
717.37	7.585
717.55	7.928
717.74	8.095
717.92	8.013
718.10	3.611
718.28	5.662
718.47	7.696
718.65	7.136
718.83	7.358
719.01	8.010
719.19	4.681
719.38	4.305
719.56	6.455
719.74	6.963
719.92	4.920
720.10	4.914
720.29	7.223
720.47	5.197
720.65	5.224
720.83	7.959
721.01	5.071
721.20	2.751
721.38	7.329
721.56	3.315
721.74	7.484
721.92	6.476
722.11	4.416
722.29	2.668
722.47	5.637
722.65	4.762
722.83	6.357
723.01	2.256
723.20	5.566
723.38	6.291
723.56	4.873
723.74	9.586
723.92	5.523
724.10	4.741
724.29	2.693
724.47	9.135
724.65	3.133
724.83	6.827
725.01	4.044
725.19	5.759
725.38	5.607
725.56	6.949
725.74	6.993
725.92	6.616
726.10	7.169
726.28	4.126
726.46	6.138
726.65	9.097
726.83	5.901
727.01	6.036
727.19	6.690
727.37	5.858
727.55	6.675
727.73	4.691
727.92	7.345
728.10	5.791
728.28	1.764
728.46	7.543
728.64	7.458
728.82	5.668
729.00	6.359
729.19	6.799
729.37	4.759
729.55	6.358
729.73	3.559
729.91	7.305
730.09	7.885
730.27	5.308
730.45	5.467
730.63	8.947
730.82	6.254
731.00	3.139
731.18	3.495
731.36	7.965
731.54	4.039
731.72	7.439
731.90	7.826
732.08	4.510
732.26	4.956
732.45	4.236
732.63	7.209
732.81	8.082
732.99	3.569
733.17	5.155
733.35	6.121
733.53	7.006
733.71	3.975
733.89	3.059
734.07	9.313
734.25	6.969
734.44	5.323
734.62	5.981
734.80	4.396
734.98	9.171
735.16	6.313
735.34	5.912
735.52	6.688
735.70	5.320
735.88	5.712
736.06	6.310
736.24	4.826
736.42	7.692
736.60	5.481
736.78	0.000
736.97	8.226
737.15	10.316
737.33	2.470
737.51	4.542
737.69	4.736
737.87	5.157
738.05	6.590
738.23	5.764
738.41	7.392
738.59	7.833
738.77	4.581
738.95	10.722
739.13	9.072
739.31	5.101
739.49	3.759
739.67	12.686
739.85	4.066
740.03	8.607
740.21	5.197
740.39	8.003
740.57	5.497
740.75	3.827
740.93	3.957
741.11	6.351
741.30	2.493
741.48	5.844
741.66	8.321
741.84	6.392
742.02	5.887
742.20	7.536
742.38	5.547
742.56	9.608
742.74	6.321
742.92	2.771
743.10	4.043
743.28	4.869
743.46	6.735
743.64	4.200
743.82	7.002
744.00	8.790
744.18	7.296
744.36	4.560
744.54	4.377
744.72	7.884
744.90	8.361
745.08	10.540
745.26	3.408
745.44	5.781
745.62	6.025
745.80	6.250
745.98	8.172
746.16	6.474
746.34	4.265
746.52	3.226
746.70	9.347
746.87	8.903
747.05	7.002
747.23	9.813
747.41	8.035
747.59	9.323
747.77	4.450
747.95	4.982
748.13	4.643
748.31	6.103
748.49	3.164
748.67	3.399
748.85	6.474
749.03	10.857
749.21	5.927
749.39	6.149
749.57	3.020
749.75	-0.346
749.93	4.450
750.11	8.028
750.29	7.516
750.47	5.059
750.65	6.842
750.83	6.189
751.01	7.750
751.18	9.402
751.36	2.995
751.54	9.351
751.72	9.197
751.90	2.975
752.08	3.836
752.26	6.757
752.44	4.934
752.62	5.789
752.80	4.795
752.98	6.723
753.16	8.564
753.34	7.437
753.52	8.419
753.69	8.784
753.87	5.845
754.05	9.225
754.23	7.191
754.41	7.627
754.59	2.730
754.77	8.782
754.95	6.810
755.13	4.466
755.31	5.763
755.49	4.583
755.66	5.364
755.84	6.470
756.02	-0.456
756.20	6.999
756.38	2.500
756.56	6.173
756.74	5.660
756.92	9.350
757.10	2.634
757.28	7.797
757.45	11.538
757.63	4.493
757.81	5.244
757.99	9.304
758.17	3.545
758.35	7.706
758.53	9.219
758.71	6.152
758.88	4.595
759.06	4.291
759.24	2.964
759.42	5.181
759.60	2.890
759.78	5.221
759.96	-0.449
760.13	5.833
760.31	5.077
760.49	6.794
760.67	2.381
760.85	6.345
761.03	3.207
761.21	3.239
761.38	-0.726
761.56	6.651
761.74	4.992
761.92	6.753
762.10	2.902
762.28	5.354
762.46	0.168
762.63	4.864
762.81	6.265
762.99	0.838
763.17	6.507
763.35	1.912
763.53	1.507
763.70	3.600
763.88	6.597
764.06	5.014
764.24	5.125
764.42	7.489
764.60	5.389
764.77	3.371
764.95	3.713
765.13	5.113
765.31	4.678
765.49	7.807
765.66	1.711
765.84	3.141
766.02	3.222
766.20	2.780
766.38	6.128
766.56	5.421
766.73	7.776
766.91	5.834
767.09	6.143
767.27	6.358
767.45	3.741
767.62	3.022
767.80	-0.814
767.98	4.580
768.16	4.178
768.33	4.919
768.51	3.656
768.69	1.961
768.87	2.397
769.05	4.374
769.22	5.491
769.40	6.052
769.58	3.383
769.76	4.071
769.94	6.719
770.11	5.941
770.29	4.343
770.47	3.541
770.65	10.870
770.82	9.011
771.00	8.033
771.18	1.457
771.36	7.919
771.53	5.667
771.71	10.820
771.89	7.674
772.07	6.452
772.25	9.257
772.42	0.962
772.60	7.317
772.78	8.656
772.96	9.794
773.13	8.163
773.31	7.184
773.49	8.663
773.67	-1.245
773.84	9.785
774.02	6.566
774.20	7.891
774.37	9.587
774.55	4.056
774.73	9.416
774.91	5.085
775.08	4.015
775.26	10.440
775.44	2.216
775.62	2.652
775.79	14.589
775.97	6.250
776.15	9.237
776.32	5.459
776.50	2.579
776.68	7.639
776.86	9.354
777.03	6.973
777.21	8.432
777.39	10.864
777.56	-1.410
777.74	6.638
777.92	5.298
778.10	4.768
778.27	7.776
778.45	9.299
778.63	-2.981
778.80	3.728
778.98	8.609
779.16	7.711
779.34	11.429
779.51	6.615
779.69	6.803
779.87	1.648
780.04	4.463
780.22	9.270
780.40	6.631
780.57	0.000
780.75	9.627
780.93	11.499
781.10	5.587
781.28	5.680
781.46	-0.443
781.63	-0.143
781.81	9.756
781.99	8.559
782.16	3.297
782.34	7.238
782.52	8.671
782.69	2.667
782.87	2.793
783.05	5.764
783.22	3.782
783.40	6.821
783.58	10.487
783.75	1.031
783.93	2.683
784.11	2.821
784.28	6.777
784.46	7.563
784.64	4.677
784.81	2.187
784.99	3.894
785.17	8.243
785.34	7.645
785.52	3.195
785.69	6.876
785.87	3.466
786.05	11.255
786.22	9.474
786.40	12.399
786.58	9.892
786.75	8.034
786.93	10.778
787.11	4.905
787.28	12.664
787.46	7.852
787.63	5.956
787.81	3.556
787.99	13.255
788.16	7.503
788.34	1.765
788.51	9.231
788.69	11.473
788.87	6.225
789.04	4.150
789.22	0.532
789.39	8.300
789.57	3.934
789.75	2.840
789.92	4.794
790.10	2.842
790.27	10.052
790.45	-0.281
790.63	2.928
790.80	-1.006
790.98	2.206
791.15	10.719
791.33	-2.734
791.51	1.438
791.68	14.645
791.86	7.774
792.03	6.592
792.21	6.395
792.39	7.607
792.56	6.677
792.74	3.387
792.91	7.614
793.09	2.404
793.26	6.731
793.44	6.219
793.62	10.050
793.79	8.735
793.97	8.007
794.14	4.912
794.32	6.511
794.49	1.894
794.67	0.688
794.84	8.108
795.02	2.181
795.20	7.882
795.37	3.936
795.55	5.199
795.72	6.579
795.90	2.652
796.07	8.511
796.25	9.046
796.42	11.791
796.60	1.570
796.77	7.949
796.95	0.284
797.13	-2.459
797.30	12.666
797.48	3.170
797.65	11.782
797.83	7.533
798.00	7.396
798.18	8.057
798.35	3.650
798.53	-2.547
798.70	4.462
798.88	9.739
799.05	6.579
799.23	6.687
799.40	-2.269
799.58	10.339
799.75	3.506
799.93	7.057
800.10	7.255
800.28	7.873
800.45	6.891
800.63	10.356
800.80	6.116
800.98	6.555
801.15	7.273
801.33	4.138
801.50	6.645
801.68	9.516
801.85	6.944
802.03	0.543
802.20	8.148
802.38	14.087
802.55	1.629
802.73	5.151
802.90	-4.417
803.08	4.159
803.25	12.758
803.43	12.150
803.60	13.163
803.78	14.740
803.95	5.508
804.13	8.007
804.30	10.417
804.48	3.585
804.65	5.512
804.83	1.754
805.00	-0.349
805.17	-0.410
805.35	8.654
805.52	20.072
805.70	9.220
805.87	9.331
806.05	4.696
806.22	-0.951
806.40	8.471
806.57	-2.968
806.75	7.276
806.92	4.044
807.09	4.530
807.27	4.580
807.44	2.574
807.62	8.222
807.79	0.524
807.97	4.537
808.14	6.087
808.31	2.481
808.49	-2.778
808.66	13.596
808.84	1.351
809.01	6.706
809.19	5.929
809.36	8.247
809.53	4.415
809.71	1.782
809.88	17.254
810.06	8.534
810.23	3.320
810.41	11.522
810.58	4.223
810.75	4.864
810.93	2.691
811.10	15.690
811.28	12.381
811.45	12.346
811.62	-2.079
811.80	4.955
811.97	6.951
812.15	21.616
812.32	14.744
812.49	8.996
812.67	7.128
812.84	-4.412
813.02	0.732
813.19	6.427
813.36	13.170
813.54	7.350
813.71	10.287
813.89	12.115
814.06	10.799
814.23	12.362
814.41	7.111
814.58	13.502
814.75	13.768
814.93	17.187
815.10	13.033
815.28	17.548
815.45	0.474
815.62	16.063
815.80	4.464
815.97	5.486
816.14	6.459
816.32	2.978
816.49	0.000
816.66	4.492
816.84	2.191
817.01	0.223
817.18	-4.415
817.36	12.554
817.53	2.320
817.71	3.505
817.88	5.252
818.05	3.761
818.23	-1.104
818.40	5.579
818.57	4.636
818.75	13.570
818.92	12.343
819.09	-6.444
819.27	4.106
819.44	-1.080
819.61	1.141
819.79	15.672
819.96	16.033
820.13	7.678
820.31	9.427
820.48	8.581
820.65	-1.338
820.82	11.077
821.00	4.070
821.17	2.909
821.34	5.762
821.52	2.948
821.69	2.125
821.86	6.461
822.04	2.373
822.21	7.656
822.38	2.994
822.56	4.534
822.73	4.894
822.90	6.833
823.07	8.949
823.25	6.804
823.42	4.669
823.59	5.727
823.77	8.708
823.94	6.633
824.11	7.750
824.29	5.245
824.46	6.669
824.63	7.148
824.80	5.598
824.98	7.967
825.15	3.578
825.32	0.791
825.49	8.074
825.67	7.085
825.84	8.478
826.01	3.955
826.19	1.770
826.36	2.314
826.53	5.310
826.70	0.168
826.88	4.493
827.05	4.766
827.22	1.501
827.39	5.495
827.57	5.413
827.74	2.717
827.91	4.532
828.08	4.980
828.26	4.980
828.43	3.099
828.60	7.578
828.77	4.866
828.95	4.972
829.12	4.889
829.29	2.085
829.46	7.241
829.64	3.343
829.81	6.061
829.98	6.336
830.15	6.544
830.32	-1.211
830.50	-0.664
830.67	3.918
830.84	2.408
831.01	10.635
831.19	11.672
831.36	8.252
831.53	3.690
831.70	7.664
831.87	7.480
832.05	5.208
832.22	5.637
832.39	-1.179
832.56	7.812
832.74	-2.203
832.91	7.129
833.08	12.698
833.25	4.808
833.42	9.154
833.60	4.575
833.77	-5.136
833.94	3.552
834.11	-1.084
834.28	0.639
834.45	2.681
834.63	3.563
834.80	1.333
834.97	3.645
835.14	3.367
835.31	3.019
835.49	6.921
835.66	2.654
835.83	6.780
836.00	3.905
836.17	4.068
836.34	4.756
836.52	0.820
836.69	5.286
836.86	5.807
837.03	5.958
837.20	9.091
837.37	3.754
837.55	4.239
837.72	14.145
837.89	3.563
838.06	3.688
838.23	0.000
838.40	5.469
838.58	5.990
838.75	14.773
838.92	13.433
839.09	12.426
839.26	4.333
839.43	4.361
839.60	7.097
839.78	19.730
839.95	24.485
840.12	8.876
840.29	0.278
840.46	23.158
840.63	11.140
840.80	1.790
840.98	6.098
841.15	8.883
841.32	0.792
841.49	6.076
841.66	14.011
841.83	14.356
842.00	13.625
842.17	12.461
842.34	10.705
842.52	-1.858
842.69	2.055
842.86	3.947
843.03	10.345
843.20	3.673
843.37	9.639
843.54	-10.277
843.71	9.288
843.88	18.008
844.06	1.724
844.23	11.017
844.40	13.253
844.57	40.441
844.74	10.920
844.91	18.376
845.08	25.837
845.25	13.208
845.42	34.052
845.59	22.222
845.76	15.574
845.94	18.462
846.11	-15.500
846.28	21.635
846.45	-3.049
846.62	6.566
846.79	20.909
846.96	5.556
847.13	14.439
847.30	1.563
847.47	40.964
847.64	-8.290
847.81	17.561
847.98	11.230
848.15	3.205
848.32	19.780
848.50	17.969
848.67	14.583
848.84	1.117
849.01	4.444
849.18	23.729
849.35	24.516
849.52	10.526
849.69	22.414
849.86	13.776
850.03	-1.705
850.20	15.190
850.37	-6.977
850.54	-57.143
850.71	44.785
850.88	10.857
851.05	26.797
851.22	2.353
851.39	9.150
851.56	-0.667
851.73	14.508
851.90	36.364
852.07	-7.031
852.24	43.353
852.41	30.657
852.58	18.994
852.75	15.060
852.92	-3.077
853.09	22.527
853.26	38.194
853.43	18.579
853.60	6.015
853.77	29.323
853.94	30.323
854.11	25.275
854.28	17.172
854.45	1.863
854.62	3.774
854.79	19.527
854.96	45.625
855.13	25.698
855.30	9.554
855.47	-13.077
855.64	29.167
855.81	7.273
855.98	-37.615
856.15	40.331
856.32	13.077
856.49	8.725
856.66	20.690
856.83	12.977
857.00	15.569
857.17	26.471
857.34	9.589
857.51	7.965
857.68	24.138
857.85	2.151
858.02	20.219
858.19	10.345
858.36	44.318
858.53	30.822
858.70	-0.826
858.87	21.094
859.04	19.355
859.21	24.675
859.38	22.286
859.55	13.287
859.72	6.289
859.89	17.910
860.05	20.886
860.22	4.372
860.39	18.056
860.56	33.668
860.73	26.590
860.90	20.548
861.07	40.441
861.24	2.326
861.41	17.327
861.58	19.337
861.75	-10.236
861.92	8.609
862.09	-10.606
862.26	7.692
862.43	15.337
862.59	14.130
862.76	36.364
862.93	44.444
863.10	-10.000
863.27	0.649
863.44	-35.354
863.61	29.452
863.78	11.719
863.95	29.744
864.12	41.111
864.29	15.084
864.45	12.422
864.62	14.857
864.79	9.220
864.96	40.179
865.13	4.070
865.30	14.286
865.47	12.308
865.64	22.772
865.81	16.022
865.97	16.940
866.14	38.542
866.31	16.316
866.48	16.418
866.65	14.493
866.82	11.000
866.99	35.616
867.16	-14.286
867.33	-3.521
867.49	-8.772
867.66	12.422
867.83	-0.676
868.00	14.573
868.17	-10.484
868.34	30.137
868.51	23.810
868.67	20.915
868.84	33.884
869.01	30.556
869.18	12.500
869.35	12.883
869.52	11.875
869.69	31.953
869.85	17.486
870.02	4.505
870.19	38.298
870.36	9.420
870.53	-10.744
870.70	30.000
870.86	50.893
871.03	12.739
871.20	44.059
871.37	33.548
871.54	-20.370
871.71	25.581
871.87	-3.053
872.04	25.126
872.21	24.277
872.38	11.429
872.55	14.184
872.72	24.638
872.88	8.176
873.05	29.560
873.22	19.048
873.39	-5.625
873.56	19.298
873.72	42.017
873.89	24.096
874.06	24.026
874.23	6.962
874.40	29.358
874.56	22.826
874.73	7.627
874.90	-1.235
875.07	24.183
875.24	8.772
875.40	27.692
875.57	39.552
875.74	39.744
875.91	3.676
876.08	21.429
876.24	-21.818
876.41	29.500
876.58	18.129
876.75	0.000
876.92	14.907
877.08	30.409
877.25	13.333
877.42	8.054
877.59	28.313
877.75	34.225
877.92	29.752
878.09	4.000
878.26	26.923
878.42	9.740
878.59	25.843
878.76	18.750
878.93	32.759
879.09	12.429
879.26	27.273
879.43	33.831
879.60	29.208
879.76	16.495
879.93	33.725
880.10	-2.525
880.27	11.489
880.43	-2.358
880.60	27.652
880.77	-9.217
880.94	12.583
881.10	14.047
881.27	3.188
881.44	12.531
881.61	12.771
881.77	7.585
881.94	6.311
882.11	4.012
882.28	8.769
882.44	0.777
882.61	6.392
882.78	7.468
882.94	9.653
883.11	6.549
883.28	5.561
883.45	7.276
883.61	2.697
883.78	-1.731
883.95	8.156
884.11	2.083
884.28	1.689
>>>>>End Processed Spectral Data<<<<<
